
##TITLE= 16 E (30min LS):DarkCurrent
##JCAMP-DX= 4.24
##DATA TYPE= IV Spectrum
##ORIGIN= Exported PE Spectrum Data File
##OWNER= 
$$WAVE=DarkCurrent
$$IT=0
$$AR=0.5
$$CM=0.002
$$ST=0.04
$$SV=0.895
$$4W=IT:0.0892625;AR:0.5;CM:0.002;ST:0.04;SV:0.895
$$WAVEINFO=IT:0.0892625;AR:0.5;CM:0.002;ST:0.04;SV:0.895
##DATE= 2010-01-20 05:01:23
##SPECTROMETER/DATA SYSTEM= PERKIN-ELMER 2000 IR
##INSTRUMENT PARAMETERS=
d_t="Wed, Jan 20, 2010 / 5:01:23 PM"
name="MT_16_E"
S_type=""
S_dye="N719"
S_electrolyte="956"
S_layer="Double (PC) 12/4, sc.,+TiCl4"
S_WE="LOF 15?/cm"
S_CE="200 nm Ag"
S_specification="MeCN/tBuOH"
V_area=0.5
V_length=1.2e-05
V_porosity=0.68
V_compliance=0.002
V_settlingTime=0.04
V_numCell=1
V_ipce550=0.00096942
V_ipce700=62.053
S_Calibrationfile="Mowgli:Igor Applications:DataScan Data:cal_Tue, Aug 25, 1998"
S_Username="Visitor"
##XUNITS= V
##YUNITS= A
##XFACTOR= 1.00
##YFACTOR= 1.00
##FIRSTX= 0.895
##LASTX= 0
##NPOINTS=180
##PEAK TABLE= (XY..XY)
0.895 -0.00628236
0.89 -0.00599362
0.885 -0.00570252
0.88 -0.00540978
0.875 -0.00512222
0.87 -0.0048374
0.865 -0.00455944
0.86 -0.00428598
0.855 -0.00402148
0.85 -0.00376458
0.845 -0.00351396
0.84 -0.00327356
0.835 -0.0030406
0.83 -0.00281842
0.825 -0.00260556
0.82 -0.0024015
0.815 -0.0022085
0.81 -0.00202418
0.805 -0.001851154
0.8 -0.001688536
0.795 -0.001534812
0.79 -0.00139209
0.785 -0.00125836
0.78 -0.001134816
0.775 -0.001019916
0.77 -9.14734E-4
0.765 -8.1823E-4
0.76 -7.29482E-4
0.755 -6.49138E-4
0.75 -5.75948E-4
0.745 -5.1015E-4
0.74 -4.50864E-4
0.735 -3.97422E-4
0.73 -3.49902E-4
0.725 -3.07252E-4
0.72 -2.69594E-4
0.715 -2.36238E-4
0.71 -2.06548E-4
0.705 -1.805428E-4
0.7 -1.575102E-4
0.695 -1.374088E-4
0.69 -1.196848E-4
0.685 -1.042866E-4
0.68 -9.08088E-5
0.675 -7.89652E-5
0.67 -6.8716E-5
0.665 -5.9727E-5
0.66 -5.1932E-5
0.655 -4.51556E-5
0.65 -3.9233E-5
0.645 -3.41244E-5
0.64 -2.96712E-5
0.635 -2.58194E-5
0.63 -2.24742E-5
0.625 -1.955136E-5
0.62 -1.703974E-5
0.615 -1.485918E-5
0.61 -1.297E-5
0.605 -1.132654E-5
0.6 -9.9145E-6
0.595 -8.6967E-6
0.59 -7.6343E-6
0.585 -6.73742E-6
0.58 -5.95032E-6
0.575 -5.27892E-6
0.57 -4.69704E-6
0.565 -4.19456E-6
0.56 -3.75878E-6
0.555 -3.38466E-6
0.55 -3.05528E-6
0.545 -2.76984E-6
0.54 -2.53506E-6
0.535 -2.33492E-6
0.53 -2.16094E-6
0.525 -2.0123E-6
0.52 -1.88225E-6
0.515 -1.774152E-6
0.51 -1.687164E-6
0.505 -1.597646E-6
0.5 -1.53515E-6
0.495 -1.470122E-6
0.49 -1.424518E-6
0.485 -1.381448E-6
0.48 -1.344288E-6
0.475 -1.307974E-6
0.47 -1.282638E-6
0.465 -1.255614E-6
0.46 -1.235346E-6
0.455 -1.21761E-6
0.45 -1.20832E-6
0.445 -1.192274E-6
0.44 -1.18214E-6
0.435 -1.166938E-6
0.43 -1.157648E-6
0.425 -1.14667E-6
0.42 -1.139914E-6
0.415 -1.138226E-6
0.41 -1.12809E-6
0.405 -1.117956E-6
0.4 -1.114578E-6
0.395 -1.118802E-6
0.39 -1.114578E-6
0.385 -1.108668E-6
0.38 -1.100222E-6
0.375 -1.099376E-6
0.37 -1.097688E-6
0.365 -1.08671E-6
0.36 -1.089242E-6
0.355 -1.08502E-6
0.35 -1.079952E-6
0.345 -1.080798E-6
0.34 -1.081642E-6
0.335 -1.06813E-6
0.33 -1.072352E-6
0.325 -1.06644E-6
0.32 -1.06813E-6
0.315 -1.072352E-6
0.31 -1.062218E-6
0.305 -1.05715E-6
0.3 -1.05884E-6
0.295 -1.05715E-6
0.29 -1.056306E-6
0.285 -1.05715E-6
0.28 -1.053772E-6
0.275 -1.051238E-6
0.27 -1.055462E-6
0.265 -1.05124E-6
0.26 -1.04955E-6
0.255 -1.050394E-6
0.25 -1.042794E-6
0.245 -1.044482E-6
0.24 -1.045328E-6
0.235 -1.047862E-6
0.23 -1.03857E-6
0.225 -1.037726E-6
0.22 -1.039416E-6
0.215 -1.036038E-6
0.21 -1.036038E-6
0.205 -1.03097E-6
0.2 -1.034348E-6
0.195 -1.033504E-6
0.19 -1.031816E-6
0.185 -1.036038E-6
0.18 -1.035194E-6
0.175 -1.027592E-6
0.17 -1.031816E-6
0.165 -1.027592E-6
0.16 -1.025904E-6
0.155 -1.025904E-6
0.15 -1.025904E-6
0.145 -1.019992E-6
0.14 -1.020836E-6
0.135 -1.02337E-6
0.13 -1.025904E-6
0.125 -1.025058E-6
0.12 -1.020836E-6
0.115 -1.022526E-6
0.11 -1.022526E-6
0.105 -1.018302E-6
0.1 -1.012392E-6
0.095 -1.012392E-6
0.09 -1.01239E-6
0.085 -1.01239E-6
0.08 -1.01577E-6
0.075 -1.01408E-6
0.07 -1.014924E-6
0.065 -1.010702E-6
0.06 -1.000566E-6
0.055 -1.007324E-6
0.05 -1.008168E-6
0.045 -1.003946E-6
0.04 -1.00479E-6
0.035 -1.00648E-6
0.03 -1.001412E-6
0.025 -9.96344E-7
0.02 -9.89588E-7
0.015 -9.84522E-7
0.01 -9.80298E-7
0.0050 -9.83678E-7
-7.09502E-16 -9.81144E-7
##END
