##TITLE= 
##JCAMP-DX= 5.00
##DATA TYPE= MASS SPECTRUM
##DATA CLASS= PEAK TABLE
##XUNITS= M/Z
##YUNITS= RELATIVE ABUNDANCE
##NPOINTS= 624
##PEAK TABLE= (XY..XY)
1549.94, 525.0
1549.92, 478.0
1549.9, 394.0
1549.88, 321.0
1549.86, 262.0
1549.84, 225.0
1549.82, 189.0
1549.8, 155.0
1549.77, 135.0
1549.75, 140.0
1549.73, 108.0
1549.71, 103.0
1549.69, 53.0
1549.67, 70.0
1549.65, 64.0
1549.63, 64.0
1549.61, 68.0
1549.58, 58.0
1549.56, 75.0
1549.54, 57.0
1549.52, 73.0
1549.5, 76.0
1549.48, 80.0
1549.46, 65.0
1549.44, 79.0
1549.42, 69.0
1549.39, 67.0
1549.37, 80.0
1549.35, 71.0
1549.33, 85.0
1549.31, 58.0
1549.29, 71.0
1549.27, 63.0
1549.25, 84.0
1549.22, 64.0
1549.2, 89.0
1549.18, 94.0
1549.16, 101.0
1549.14, 109.0
1549.12, 118.0
1549.1, 150.0
1549.08, 155.0
1549.05, 158.0
1549.03, 185.0
1549.01, 203.0
1548.99, 224.0
1548.97, 205.0
1548.95, 220.0
1548.93, 188.0
1548.91, 173.0
1548.89, 156.0
1548.86, 157.0
1548.84, 129.0
1548.82, 108.0
1548.8, 84.0
1548.78, 82.0
1548.76, 72.0
1548.74, 58.0
1548.72, 72.0
1548.69, 44.0
1548.67, 67.0
1548.65, 45.0
1548.63, 62.0
1548.61, 66.0
1548.59, 79.0
1548.57, 61.0
1548.55, 71.0
1548.53, 74.0
1548.5, 76.0
1548.48, 81.0
1548.46, 73.0
1548.44, 92.0
1548.42, 82.0
1548.4, 92.0
1548.38, 89.0
1548.36, 95.0
1548.34, 87.0
1548.31, 72.0
1548.29, 88.0
1548.27, 120.0
1548.25, 122.0
1548.23, 124.0
1548.21, 156.0
1548.19, 181.0
1548.17, 207.0
1548.14, 231.0
1548.12, 270.0
1548.1, 275.0
1548.08, 312.0
1548.06, 372.0
1548.04, 407.0
1548.02, 408.0
1548.0, 441.0
1547.98, 455.0
1547.95, 443.0
1547.93, 415.0
1547.91, 376.0
1547.89, 307.0
1547.87, 275.0
1547.85, 236.0
1547.83, 192.0
1547.81, 155.0
1547.78, 132.0
1547.76, 109.0
1547.74, 86.0
1547.72, 88.0
1547.7, 94.0
1547.68, 97.0
1547.66, 82.0
1547.64, 113.0
1547.62, 83.0
1547.59, 98.0
1547.57, 95.0
1547.55, 114.0
1547.53, 115.0
1547.51, 119.0
1547.49, 118.0
1547.47, 134.0
1547.45, 143.0
1547.42, 135.0
1547.4, 143.0
1547.38, 131.0
1547.36, 128.0
1547.34, 122.0
1547.32, 124.0
1547.3, 141.0
1547.28, 149.0
1547.26, 170.0
1547.23, 188.0
1547.21, 215.0
1547.19, 269.0
1547.17, 290.0
1547.15, 302.0
1547.13, 379.0
1547.11, 453.0
1547.09, 497.0
1547.07, 604.0
1547.04, 610.0
1547.02, 647.0
1547.0, 666.0
1546.98, 629.0
1546.96, 518.0
1546.94, 519.0
1546.92, 441.0
1546.9, 363.0
1546.87, 299.0
1546.85, 239.0
1546.83, 208.0
1546.81, 171.0
1546.79, 169.0
1546.77, 149.0
1546.75, 100.0
1546.73, 124.0
1546.71, 110.0
1546.68, 121.0
1546.66, 107.0
1546.64, 97.0
1546.62, 124.0
1546.6, 121.0
1546.58, 125.0
1546.56, 130.0
1546.54, 153.0
1546.52, 172.0
1546.49, 181.0
1546.47, 171.0
1546.45, 162.0
1546.43, 185.0
1546.41, 172.0
1546.39, 167.0
1546.37, 200.0
1546.35, 234.0
1546.32, 246.0
1546.3, 258.0
1546.28, 322.0
1546.26, 365.0
1546.24, 504.0
1546.22, 576.0
1546.2, 607.0
1546.18, 725.0
1546.16, 890.0
1546.13, 991.0
1546.11, 1182.0
1546.09, 1329.0
1546.07, 1541.0
1546.05, 1589.0
1546.03, 1820.0
1546.01, 1653.0
1545.99, 1688.0
1545.97, 1481.0
1545.94, 1371.0
1545.92, 1092.0
1545.9, 973.0
1545.88, 750.0
1545.86, 582.0
1545.84, 484.0
1545.82, 365.0
1545.8, 313.0
1545.77, 280.0
1545.75, 248.0
1545.73, 198.0
1545.71, 216.0
1545.69, 163.0
1545.67, 168.0
1545.65, 171.0
1545.63, 159.0
1545.61, 123.0
1545.58, 137.0
1545.56, 109.0
1545.54, 108.0
1545.52, 129.0
1545.5, 146.0
1545.48, 168.0
1545.46, 182.0
1545.44, 198.0
1545.42, 197.0
1545.39, 263.0
1545.37, 272.0
1545.35, 296.0
1545.33, 377.0
1545.31, 459.0
1545.29, 588.0
1545.27, 692.0
1545.25, 818.0
1545.22, 959.0
1545.2, 1079.0
1545.18, 1378.0
1545.16, 1586.0
1545.14, 1823.0
1545.12, 2217.0
1545.1, 2486.0
1545.08, 2761.0
1545.06, 3189.0
1545.03, 3277.0
1545.01, 3295.0
1544.99, 3041.0
1544.97, 2761.0
1544.95, 2306.0
1544.93, 1808.0
1544.91, 1535.0
1544.89, 1203.0
1544.87, 937.0
1544.84, 699.0
1544.82, 586.0
1544.8, 482.0
1544.78, 432.0
1544.76, 402.0
1544.74, 322.0
1544.72, 324.0
1544.7, 240.0
1544.67, 176.0
1544.65, 179.0
1544.63, 152.0
1544.61, 151.0
1544.59, 123.0
1544.57, 141.0
1544.55, 147.0
1544.53, 176.0
1544.51, 184.0
1544.48, 209.0
1544.46, 223.0
1544.44, 265.0
1544.42, 324.0
1544.4, 413.0
1544.38, 519.0
1544.36, 662.0
1544.34, 808.0
1544.32, 964.0
1544.29, 1192.0
1544.27, 1402.0
1544.25, 1617.0
1544.23, 1901.0
1544.21, 2329.0
1544.19, 2636.0
1544.17, 3234.0
1544.15, 3947.0
1544.13, 4741.0
1544.1, 5604.0
1544.08, 6445.0
1544.06, 7329.0
1544.04, 8094.0
1544.02, 8476.0
1544.0, 8635.0
1543.98, 8097.0
1543.96, 7259.0
1543.93, 5925.0
1543.91, 4847.0
1543.89, 3600.0
1543.87, 2778.0
1543.85, 2093.0
1543.83, 1576.0
1543.81, 1383.0
1543.79, 1071.0
1543.77, 873.0
1543.74, 818.0
1543.72, 683.0
1543.7, 575.0
1543.68, 445.0
1543.66, 346.0
1543.64, 283.0
1543.62, 206.0
1543.6, 165.0
1543.58, 187.0
1543.55, 133.0
1543.53, 147.0
1543.51, 160.0
1543.49, 187.0
1543.47, 232.0
1543.45, 267.0
1543.43, 318.0
1543.41, 349.0
1543.39, 450.0
1543.36, 549.0
1543.34, 719.0
1543.32, 818.0
1543.3, 949.0
1543.28, 1131.0
1543.26, 1404.0
1543.24, 1675.0
1543.22, 2006.0
1543.2, 2456.0
1543.17, 2933.0
1543.15, 3415.0
1543.13, 4219.0
1543.11, 4988.0
1543.09, 5870.0
1543.07, 6501.0
1543.05, 6943.0
1543.03, 7457.0
1543.01, 7193.0
1542.98, 6700.0
1542.96, 5930.0
1542.94, 4815.0
1542.92, 3908.0
1542.9, 2886.0
1542.88, 2200.0
1542.86, 1763.0
1542.84, 1357.0
1542.81, 1041.0
1542.79, 919.0
1542.77, 766.0
1542.75, 675.0
1542.73, 557.0
1542.71, 492.0
1542.69, 399.0
1542.67, 315.0
1542.65, 246.0
1542.62, 213.0
1542.6, 192.0
1542.58, 162.0
1542.56, 175.0
1542.54, 180.0
1542.52, 165.0
1542.5, 193.0
1542.48, 225.0
1542.46, 314.0
1542.43, 407.0
1542.41, 503.0
1542.39, 644.0
1542.37, 826.0
1542.35, 1026.0
1542.33, 1364.0
1542.31, 1606.0
1542.29, 1900.0
1542.27, 2309.0
1542.24, 2780.0
1542.22, 3323.0
1542.2, 4092.0
1542.18, 4862.0
1542.16, 5896.0
1542.14, 6945.0
1542.12, 8327.0
1542.1, 9914.0
1542.08, 11690.0
1542.05, 13320.0
1542.03, 14790.0
1542.01, 16000.0
1541.99, 16010.0
1541.97, 15320.0
1541.95, 13690.0
1541.93, 11430.0
1541.91, 9071.0
1541.89, 6851.0
1541.86, 5083.0
1541.84, 3838.0
1541.82, 2971.0
1541.8, 2358.0
1541.78, 1876.0
1541.76, 1477.0
1541.74, 1279.0
1541.72, 1121.0
1541.69, 932.0
1541.67, 735.0
1541.65, 485.0
1541.63, 379.0
1541.61, 268.0
1541.59, 207.0
1541.57, 176.0
1541.55, 167.0
1541.53, 172.0
1541.5, 157.0
1541.48, 135.0
1541.46, 177.0
1541.44, 149.0
1541.42, 135.0
1541.4, 153.0
1541.38, 155.0
1541.36, 141.0
1541.34, 173.0
1541.31, 135.0
1541.29, 136.0
1541.27, 114.0
1541.25, 140.0
1541.23, 170.0
1541.21, 176.0
1541.19, 150.0
1541.17, 187.0
1541.15, 171.0
1541.12, 199.0
1541.1, 187.0
1541.08, 205.0
1541.06, 214.0
1541.04, 200.0
1541.02, 215.0
1541.0, 203.0
1540.98, 210.0
1540.96, 187.0
1540.93, 173.0
1540.91, 186.0
1540.89, 155.0
1540.87, 167.0
1540.85, 155.0
1540.83, 133.0
1540.81, 126.0
1540.79, 141.0
1540.77, 121.0
1540.74, 137.0
1540.72, 123.0
1540.7, 131.0
1540.68, 134.0
1540.66, 113.0
1540.64, 119.0
1540.62, 144.0
1540.6, 139.0
1540.58, 138.0
1540.55, 142.0
1540.53, 130.0
1540.51, 141.0
1540.49, 136.0
1540.47, 149.0
1540.45, 153.0
1540.43, 159.0
1540.41, 180.0
1540.39, 157.0
1540.36, 166.0
1540.34, 165.0
1540.32, 154.0
1540.3, 152.0
1540.28, 194.0
1540.26, 163.0
1540.24, 199.0
1540.22, 199.0
1540.2, 237.0
1540.17, 230.0
1540.15, 241.0
1540.13, 248.0
1540.11, 304.0
1540.09, 319.0
1540.07, 313.0
1540.05, 353.0
1540.03, 312.0
1540.01, 320.0
1539.98, 330.0
1539.96, 282.0
1539.94, 294.0
1539.92, 258.0
1539.9, 258.0
1539.88, 214.0
1539.86, 204.0
1539.84, 179.0
1539.82, 162.0
1539.79, 136.0
1539.77, 171.0
1539.75, 107.0
1539.73, 116.0
1539.71, 143.0
1539.69, 132.0
1539.67, 122.0
1539.65, 113.0
1539.63, 119.0
1539.6, 138.0
1539.58, 130.0
1539.56, 139.0
1539.54, 143.0
1539.52, 149.0
1539.5, 171.0
1539.48, 182.0
1539.46, 193.0
1539.44, 181.0
1539.41, 188.0
1539.39, 182.0
1539.37, 171.0
1539.35, 184.0
1539.33, 181.0
1539.31, 197.0
1539.29, 181.0
1539.27, 219.0
1539.25, 241.0
1539.22, 246.0
1539.2, 217.0
1539.18, 253.0
1539.16, 322.0
1539.14, 343.0
1539.12, 351.0
1539.1, 426.0
1539.08, 450.0
1539.06, 436.0
1539.03, 460.0
1539.01, 445.0
1538.99, 427.0
1538.97, 404.0
1538.95, 356.0
1538.93, 364.0
1538.91, 305.0
1538.89, 291.0
1538.87, 233.0
1538.84, 214.0
1538.82, 212.0
1538.8, 185.0
1538.78, 151.0
1538.76, 122.0
1538.74, 135.0
1538.72, 118.0
1538.7, 104.0
1538.68, 116.0
1538.65, 117.0
1538.63, 113.0
1538.61, 139.0
1538.59, 119.0
1538.57, 127.0
1538.55, 121.0
1538.53, 132.0
1538.51, 141.0
1538.49, 166.0
1538.46, 172.0
1538.44, 195.0
1538.42, 202.0
1538.4, 185.0
1538.38, 201.0
1538.36, 230.0
1538.34, 234.0
1538.32, 231.0
1538.3, 259.0
1538.27, 318.0
1538.25, 296.0
1538.23, 357.0
1538.21, 421.0
1538.19, 527.0
1538.17, 554.0
1538.15, 600.0
1538.13, 712.0
1538.11, 801.0
1538.08, 853.0
1538.06, 835.0
1538.04, 874.0
1538.02, 865.0
1538.0, 746.0
1537.98, 713.0
1537.96, 657.0
1537.94, 576.0
1537.92, 496.0
1537.9, 479.0
1537.87, 375.0
1537.85, 310.0
1537.83, 283.0
1537.81, 225.0
1537.79, 211.0
1537.77, 186.0
1537.75, 152.0
1537.73, 121.0
1537.71, 132.0
1537.68, 135.0
1537.66, 136.0
1537.64, 132.0
1537.62, 144.0
1537.6, 98.0
1537.58, 134.0
1537.56, 142.0
1537.54, 151.0
1537.52, 144.0
1537.49, 147.0
1537.47, 176.0
1537.45, 163.0
1537.43, 186.0
1537.41, 173.0
1537.39, 167.0
1537.37, 178.0
1537.35, 138.0
1537.33, 125.0
1537.3, 152.0
1537.28, 146.0
1537.26, 161.0
1537.24, 181.0
1537.22, 179.0
1537.2, 229.0
1537.18, 225.0
1537.16, 265.0
1537.14, 270.0
1537.11, 302.0
1537.09, 362.0
1537.07, 454.0
1537.05, 471.0
1537.03, 511.0
1537.01, 549.0
1536.99, 566.0
1536.97, 561.0
1536.95, 563.0
1536.92, 512.0
1536.9, 475.0
1536.88, 416.0
1536.86, 312.0
1536.84, 287.0
1536.82, 211.0
1536.8, 202.0
1536.78, 155.0
##END NTUPLES= NMR_SPECTRUM
##END= 
