##TITLE= Al25C33H99ClO21 - resolution: 0.0010
##JCAMP-DX= 5.00
##DATA TYPE= MASS SPECTRUM
##DATA CLASS= PEAK TABLE
##ORIGIN= Generated spectrum based on ChemCalc www.chemcalc.org
##SPECTROMETER/DATA SYSTEM= Based on ChemCalc isotopic distribution calculator
##XUNITS= M/Z
##YUNITS= RELATIVE ABUNDANCE
##NPOINTS= 65
##MAXY= 100
##MINY= 0
##PEAK TABLE= (XY..XY)
1539.193, 0
1541.193, 100
1542.196, 36.70374115
1542.197, 0.84202085
1542.199, 1.48522278
1543.19, 31.97835555
1543.197, 4.21010425
1543.199, 6.3337767
1543.2, 0.50653771
1543.201, 0.00305464
1543.202, 0.54496547
1543.203, 0.01179006
1543.205, 0.01069746
1544.193, 11.38157852
1544.194, 0.62493875
1544.196, 0.47494982
1544.2, 1.54303595
1544.201, 0.03567014
1544.202, 0.68245003
1544.203, 0.18331582
1544.204, 0.00267445
1544.205, 0.09312783
1544.206, 0.00710628
1544.208, 0.00380739
1545.194, 1.34632211
1545.196, 1.89884778
1545.197, 0.28572004
1545.198, 0.00285224
1545.199, 0.1690418
1545.2, 0.00899946
1545.201, 0.08440466
1545.202, 0.00342087
1545.203, 0.26586498
1545.204, 0.01880821
1545.205, 0.05150733
1545.206, 0.03904602
1545.207, 0.00125392
1545.208, 0.00906253
1545.209, 0.0018782
1546.197, 0.47917632
1546.198, 0.02402945
1546.199, 0.19711666
1546.2, 0.07631795
1546.201, 0.00171914
1546.202, 0.0279196
1546.203, 0.00413362
1546.204, 0.03004089
1546.206, 0.02806983
1546.207, 0.00558467
1546.208, 0.00239905
1546.209, 0.00414919
1547.198, 0.02699122
1547.2, 0.07994347
1547.201, 0.01109033
1547.202, 0.0142788
1547.203, 0.0137712
1547.205, 0.00289805
1547.207, 0.00453456
1547.209, 0.00142945
1548.201, 0.00869167
1548.203, 0.00790363
1548.204, 0.00114148
1548.206, 0.00132684
1549.204, 0.00145008
1551.204, 0
##END=

