##TITLE= 
##JCAMP-DX= 5.00
##DATA TYPE= MASS SPECTRUM
##DATA CLASS= PEAK TABLE
##XUNITS= M/Z
##YUNITS= RELATIVE ABUNDANCE
##NPOINTS= 8260
##PEAK TABLE= (XY..XY)
1285.3135, 0.0
1285.2988, 0.0
1285.2841, 0.0
1285.0065, 0.0
1284.9921, 0.0
1284.9774, 0.0
1282.8451, 0.0
1282.8307, 0.0
1282.816, 0.0
1281.809, 0.0
1281.7943, 0.0
1281.7799, 0.0
1278.2074, 0.0
1278.1926, 0.0
1278.1782, 0.0
1275.9207, 0.0
1275.9063, 0.0
1275.8916, 0.0
1274.7998, 0.0
1274.7854, 0.0
1274.771, 0.0
1274.7562, 0.0
1274.7418, 0.0
1274.6544, 0.0
1274.64, 0.0
1274.6254, 0.0
1274.5526, 0.0
1274.538, 0.0
1274.5234, 0.0
1272.8215, 0.0
1272.8071, 0.0
1272.7927, 0.0
1271.5859, 0.0
1271.5715, 0.0
1271.557, 0.0
1270.6705, 0.0
1270.656, 0.0
1270.6416, 0.0
1270.4962, 0.0
1270.4818, 0.0
1270.467, 0.0
1269.0004, 0.0
1268.986, 0.0
1268.9713, 0.0
1267.3749, 0.0
1267.3604, 0.0
1267.3457, 0.0
1265.6343, 0.0
1265.6199, 0.0
1265.6053, 0.0
1262.5188, 0.0
1262.5043, 0.0
1262.4899, 0.0
1259.624, 0.0
1259.6096, 0.0
1259.5952, 0.0
1257.73, 0.0
1257.7156, 0.0
1257.7012, 0.0
1257.2675, 0.0
1257.2529, 0.0
1257.2385, 0.0
1256.704, 0.0
1256.6895, 0.0
1256.675, 0.0
1255.8372, 0.0
1255.8228, 0.0
1255.8083, 0.0
1253.3109, 0.0
1253.2965, 0.0
1253.282, 0.0
1252.7051, 0.0
1252.6907, 0.0
1252.6761, 0.0
1248.05, 0.0
1248.0355, 0.0
1248.0211, 0.0
1247.7908, 0.0
1247.7764, 0.0
1247.762, 0.0
1247.6038, 0.0
1247.5894, 0.0
1247.575, 0.0
1247.5604, 0.0
1247.0422, 0.0
1247.0278, 0.0
1247.0134, 0.0
1246.8552, 0.0
1246.8408, 0.0
1246.8264, 0.0
1245.359, 0.0
1245.3445, 0.0
1245.3301, 0.0
1244.0504, 0.0
1244.036, 0.0
1244.0219, 0.0
1242.4122, 0.0
1242.3977, 0.0
1242.3835, 0.0
1240.4305, 0.0
1240.416, 0.0
1240.4019, 0.0
1239.3971, 0.0
1239.3829, 0.0
1239.3684, 0.0
1238.0344, 0.0
1238.0203, 0.0
1238.0059, 0.0
1237.2603, 0.0
1237.2458, 0.0
1237.2316, 0.0
1237.1455, 0.0
1237.1312, 0.0
1237.1168, 0.0
1235.7412, 0.0
1235.7268, 0.0
1235.7123, 0.0
1234.7957, 0.0
1234.7815, 0.0
1234.767, 0.0
1234.0079, 0.0
1233.9938, 0.0
1233.9796, 0.0
1233.3353, 0.0
1233.3209, 0.0
1233.3068, 0.0
1232.2047, 0.0
1232.1906, 0.0
1232.1761, 0.0
1230.5029, 0.0
1230.4886, 0.0
1230.4742, 0.0
1229.3022, 0.0
1229.2881, 0.0
1229.2737, 0.0
1228.8451, 0.0
1228.8308, 0.0
1228.8164, 0.0
1228.3595, 0.0
1228.345, 0.0
1228.3308, 0.0
1226.3318, 0.0
1226.3176, 0.0
1226.3031, 0.0
1226.2889, 0.0
1225.1902, 0.0
1225.176, 0.0
1225.1617, 0.0
1223.8068, 0.0
1223.7926, 0.0
1223.7783, 0.0
1223.1226, 0.0
1223.1084, 0.0
1223.094, 0.0
1222.296, 0.0
1222.2819, 0.0
1222.2675, 0.0
1222.2249, 0.0
1222.2106, 0.0
1222.1962, 0.0
1221.8687, 0.0
1221.8542, 0.0
1221.8401, 0.0
1221.2418, 0.0
1221.2277, 0.0
1221.2134, 0.0
1220.9427, 0.0
1220.9285, 0.0
1220.9143, 0.0
1220.2023, 0.0
1220.1881, 0.0
1220.174, 0.0
1219.8322, 0.0
1219.818, 0.0
1219.8038, 0.0
1219.4622, 0.0
1219.4479, 0.0
1219.4337, 0.0
1219.149, 0.0
1219.1349, 0.0
1219.1206, 0.0
1218.1957, 0.0
1218.1815, 0.0
1218.1672, 0.0
1216.7736, 0.0
1216.7594, 0.0
1216.7452, 0.0
1214.287, 0.0
1214.2728, 0.0
1214.2585, 0.0
1214.145, 0.0
1214.1309, 0.0
1214.1166, 0.0
1210.7249, 0.0
1210.7107, 0.0
1210.6965, 0.0
1209.5481, 0.0
1209.5338, 0.0
1209.5197, 0.0
1206.559, 0.0
1206.545, 0.0
1206.5309, 0.0
1206.276, 0.0
1206.2618, 0.0
1206.2477, 0.0
1205.6957, 0.0
1205.6815, 0.0
1205.6672, 0.0
1205.1295, 0.0
1205.1156, 0.0
1205.1014, 0.0
1204.3517, 0.0
1204.3375, 0.0
1204.3232, 0.0
1204.0405, 0.0
1204.0264, 0.0
1204.0122, 0.0
1203.4042, 0.0
1203.39, 0.0
1203.3759, 0.0
1202.1885, 0.0
1202.1744, 0.0
1202.1603, 0.0
1201.3267, 0.0
1201.3126, 0.0
1201.2985, 0.0
1201.0442, 0.0
1201.0299, 0.0
1201.016, 0.0
1198.4749, 0.0
1198.4607, 0.0
1198.4467, 0.0
1197.1771, 0.0
1197.1632, 0.0
1197.1489, 0.0
1196.2888, 0.0
1196.2749, 0.0
1196.2607, 0.0
1195.7109, 0.0
1195.697, 0.0
1195.6829, 0.0
1195.387, 0.0
1195.3727, 0.0
1195.3588, 0.0
1195.2601, 0.0
1195.246, 0.0
1195.2319, 0.0
1195.2039, 0.0
1195.1896, 0.0
1195.1754, 0.0
1194.8374, 0.0
1194.8232, 0.0
1194.8093, 0.0
1194.6119, 0.0
1194.598, 0.0
1194.5839, 0.0
1194.3866, 0.0
1194.3726, 0.0
1194.3584, 0.0
1194.1332, 0.0
1194.119, 0.0
1194.1049, 0.0
1193.3728, 0.0
1193.3585, 0.0
1193.3446, 0.0
1192.5422, 0.0
1192.5281, 0.0
1192.5142, 0.0
1190.9523, 0.0
1190.9384, 0.0
1190.9241, 0.0
1190.8257, 0.0
1190.8115, 0.0
1190.7976, 0.0
1189.1948, 0.0
1189.1807, 0.0
1189.1667, 0.0
1188.3235, 0.0
1188.3096, 0.0
1188.2954, 0.0
1187.9584, 0.0
1187.9443, 0.0
1187.9302, 0.0
1187.8038, 0.0
1187.7897, 0.0
1187.7758, 0.0
1187.7616, 0.0
1186.9751, 0.0
1186.9612, 0.0
1186.9473, 0.0
1186.6663, 0.0
1186.6522, 0.0
1186.6383, 0.0
1185.2909, 0.0
1185.2767, 0.0
1185.2627, 0.0
1184.8699, 0.0
1184.856, 0.0
1184.8418, 0.0
1184.6173, 0.0
1184.6034, 0.0
1184.5894, 0.0
1181.8275, 0.0
1181.8136, 0.0
1181.7996, 0.0
1180.371, 0.0
1180.3567, 0.0
1180.3428, 0.0
1178.4672, 0.0
1178.4532, 0.0
1178.4392, 0.0
1177.1665, 0.0
1177.1526, 0.0
1177.1383, 0.0
1175.4052, 0.0
1175.3912, 0.0
1175.3773, 0.0
1174.3434, 0.0
1174.3295, 0.0
1174.3156, 0.0
1173.3101, 0.0
1173.2961, 0.0
1173.2821, 0.0
1171.468, 0.0
1171.454, 0.0
1171.4401, 0.0
1168.652, 0.0
1168.6381, 0.0
1168.6241, 0.0
1167.7743, 0.0
1167.7604, 0.0
1167.7466, 0.0
1166.1035, 0.0
1166.0898, 0.0
1166.0759, 0.0
1165.9227, 0.0
1165.9087, 0.0
1165.895, 0.0
1159.0858, 0.0
1159.0721, 0.0
1159.0581, 0.0
1157.1858, 0.0
1157.1718, 0.0
1157.1578, 0.0
1157.1302, 0.0
1157.1165, 0.0
1157.1025, 0.0
1157.0748, 0.0
1157.0609, 0.0
1157.047, 0.0
1156.465, 0.0
1156.4509, 0.0
1156.437, 0.0
1155.5919, 0.0
1155.5779, 0.0
1155.5642, 0.0
1155.093, 0.0
1155.0793, 0.0
1155.0654, 0.0
1154.3453, 0.0
1154.3314, 0.0
1154.3176, 0.0
1154.1515, 0.0
1154.1376, 0.0
1154.1238, 0.0
1154.0682, 0.0
1154.0546, 0.0
1154.0406, 0.0
1152.5043, 0.0
1152.4906, 0.0
1152.4766, 0.0
1151.9232, 0.0
1151.9095, 0.0
1151.8955, 0.0
1151.7572, 0.0
1151.7435, 0.0
1151.7296, 0.0
1149.6974, 0.0
1149.6835, 0.0
1149.6697, 0.0
1148.509, 0.0
1148.4954, 0.0
1148.4814, 0.0
1147.8463, 0.0
1147.8323, 0.0
1147.8186, 0.0
1147.5702, 0.0
1147.5563, 0.0
1147.5425, 0.0
1147.156, 0.0
1147.1421, 0.0
1147.1284, 0.0
1145.5, 0.0
1145.4863, 0.0
1145.4724, 0.0
1144.783, 0.0
1144.7692, 0.0
1144.7552, 0.0
1143.4595, 0.0
1143.4456, 0.0
1143.4319, 0.0
1142.2194, 0.0
1142.2056, 0.0
1142.1919, 0.0
1141.7648, 0.0
1141.7511, 0.0
1141.7374, 0.0
1140.7461, 0.0
1140.7322, 0.0
1140.7185, 0.0
1140.5946, 0.0
1140.5809, 0.0
1140.5673, 0.0
1138.6685, 0.0
1138.6547, 0.0
1138.641, 0.0
1138.3933, 0.0
1138.3796, 0.0
1138.3658, 0.0
1138.2421, 0.0
1138.2283, 0.0
1138.2146, 0.0
1137.9808, 0.0
1137.9672, 0.0
1137.9535, 0.0
1137.1837, 0.0
1137.1698, 0.0
1137.156, 0.0
1136.7576, 0.0
1136.7439, 0.0
1136.7302, 0.0
1136.469, 0.0
1136.4553, 0.0
1136.4417, 0.0
1136.0706, 0.0
1136.0569, 0.0
1136.0431, 0.0
1133.9562, 0.0
1133.9424, 0.0
1133.9287, 0.0
1133.7502, 0.0
1133.7366, 0.0
1133.7229, 0.0
1133.0917, 0.0
1133.0779, 0.0
1133.0642, 0.0
1130.8291, 0.0
1130.8154, 0.0
1130.8018, 0.0
1130.788, 0.0
1130.7743, 0.0
1130.7606, 0.0
1130.089, 0.0
1130.0753, 0.0
1130.0615, 0.0
1128.8838, 0.0
1128.8701, 0.0
1128.8564, 0.0
1128.3086, 0.0
1128.2949, 0.0
1128.2813, 0.0
1126.8306, 0.0
1126.8169, 0.0
1126.8032, 0.0
1126.776, 0.0
1126.7623, 0.0
1126.7485, 0.0
1126.3245, 0.0
1126.3107, 0.0
1126.297, 0.0
1125.1484, 0.0
1125.1346, 0.0
1125.1212, 0.0
1124.9025, 0.0
1124.8887, 0.0
1124.875, 0.0
1123.3311, 0.0
1123.3174, 0.0
1123.3037, 0.0
1122.0337, 0.0
1122.0199, 0.0
1122.0062, 0.0
1121.9928, 0.0
1121.9791, 0.0
1121.4877, 0.0
1121.4739, 0.0
1121.4604, 0.0
1119.9323, 0.0
1119.9185, 0.0
1119.905, 0.0
1118.296, 0.0
1118.2826, 0.0
1118.2689, 0.0
1118.0508, 0.0
1118.0371, 0.0
1118.0237, 0.0
1117.6555, 0.0
1117.6421, 0.0
1117.6283, 0.0
1116.9473, 0.0
1116.9335, 0.0
1116.92, 0.0
1116.8383, 0.0
1116.8246, 0.0
1116.8112, 0.0
1116.7566, 0.0
1116.7428, 0.0
1116.7294, 0.0
1115.8987, 0.0
1115.885, 0.0
1115.8715, 0.0
1115.4767, 0.0
1115.463, 0.0
1115.4493, 0.0
1114.116, 0.0
1114.1022, 0.0
1114.0887, 0.0
1112.3209, 0.0
1112.3073, 0.0
1112.2937, 0.0
1111.5869, 0.0
1111.5735, 0.0
1111.5597, 0.0
1110.2828, 0.0
1110.2694, 0.0
1110.2557, 0.0
1110.2151, 0.0
1110.2014, 0.0
1110.1879, 0.0
1109.9706, 0.0
1109.9572, 0.0
1109.9434, 0.0
1109.2103, 0.0
1109.1967, 0.0
1109.1832, 0.0
1108.5725, 0.0
1108.5588, 0.0
1108.5454, 0.0
1108.1924, 0.0
1108.179, 0.0
1108.1653, 0.0
1106.1718, 0.0
1106.1583, 0.0
1106.1449, 0.0
1106.0093, 0.0
1105.9956, 0.0
1105.9821, 0.0
1105.9414, 0.0
1105.9277, 0.0
1105.9143, 0.0
1105.5619, 0.0
1105.5483, 0.0
1105.5349, 0.0
1105.2231, 0.0
1105.2097, 0.0
1105.1962, 0.0
1104.9659, 0.0
1104.9521, 0.0
1104.9387, 0.0
1104.8438, 0.0
1104.8303, 0.0
1104.8169, 0.0
1104.8031, 0.0
1104.4375, 0.0
1104.4241, 0.0
1104.4103, 0.0
1104.0311, 0.0
1104.0177, 0.0
1104.004, 0.0
1102.9888, 0.0
1102.9751, 0.0
1102.9617, 0.0
1102.8263, 0.0
1102.8129, 0.0
1102.7991, 0.0
1102.7722, 0.0
1102.7585, 0.0
1102.745, 0.0
1102.0548, 0.0
1102.0414, 0.0
1102.028, 0.0
1100.7295, 0.0
1100.7158, 0.0
1100.7024, 0.0
1099.8778, 0.0
1099.864, 0.0
1099.8506, 0.0
1098.8372, 0.0
1098.8236, 0.0
1098.8102, 0.0
1097.2839, 0.0
1097.2705, 0.0
1097.257, 0.0
1095.9747, 0.0
1095.9613, 0.0
1095.9479, 0.0
1094.8418, 0.0
1094.8284, 1.0
1094.8149, 0.0
1094.8014, 0.0
1094.0598, 0.0
1094.0464, 0.0
1094.0327, 0.0
1093.4531, 0.0
1093.4397, 0.0
1093.4261, 0.0
1092.7795, 0.0
1092.7661, 0.0
1092.7524, 0.0
1092.5236, 0.0
1092.5101, 0.0
1092.4966, 0.0
1092.4022, 0.0
1092.3887, 0.0
1092.3752, 0.0
1092.3618, 0.0
1092.025, 0.0
1092.0116, 0.0
1091.998, 0.0
1091.8904, 0.0
1091.877, 0.0
1091.8635, 0.0
1091.4462, 0.0
1091.4327, 0.0
1091.4191, 0.0
1091.3113, 0.0
1091.2979, 0.0
1091.2844, 0.0
1090.9749, 0.0
1090.9613, 0.0
1090.9479, 0.0
1090.6248, 0.0
1090.6113, 0.0
1090.5979, 0.0
1088.7682, 0.0
1088.7546, 0.0
1088.7415, 0.0
1087.9346, 0.0
1087.921, 0.0
1087.9076, 0.0
1086.7654, 0.0
1086.752, 0.0
1086.7384, 0.0
1086.2147, 0.0
1086.2013, 0.0
1086.1877, 0.0
1086.1205, 0.0
1086.1073, 0.0
1086.0938, 0.0
1085.6371, 0.0
1085.6237, 0.0
1085.6101, 0.0
1084.4423, 0.0
1084.4288, 0.0
1084.4153, 0.0
1083.1274, 0.0
1083.114, 0.0
1083.1006, 0.0
1082.953, 0.0
1082.9395, 0.0
1082.9263, 0.0
1082.7653, 0.0
1082.7517, 0.0
1082.7383, 0.0
1081.411, 0.0
1081.3978, 0.0
1081.3844, 0.0
1080.8484, 0.0
1080.835, 0.0
1080.8214, 0.0
1080.1115, 0.0
1080.098, 0.0
1080.0847, 0.0
1079.7098, 0.0
1079.6964, 0.0
1079.6829, 0.0
1079.4017, 0.0
1079.3882, 0.0
1079.375, 0.0
1078.1702, 0.0
1078.1566, 0.0
1078.1434, 0.0
1077.7552, 0.0
1077.7421, 0.0
1077.7286, 0.0
1076.9929, 0.0
1076.9794, 0.0
1076.9659, 0.0
1076.6451, 0.0
1076.6316, 0.0
1076.6184, 0.0
1076.3242, 0.0
1076.3108, 0.0
1076.2974, 0.0
1075.9231, 0.0
1075.9097, 0.0
1075.8965, 0.0
1075.7227, 0.0
1075.7092, 0.0
1075.6957, 0.0
1074.3594, 0.0
1074.3462, 0.0
1074.3328, 0.0
1074.0121, 0.0
1073.9989, 0.0
1073.9855, 0.0
1073.4244, 0.0
1073.4113, 0.0
1073.3978, 0.0
1073.3313, 0.0
1073.3177, 0.0
1073.3043, 0.0
1071.5028, 0.0
1071.4893, 0.0
1071.4758, 0.0
1071.2759, 0.0
1071.2625, 0.0
1071.2491, 0.0
1069.9155, 0.0
1069.9023, 0.0
1069.8889, 0.0
1069.5957, 0.0
1069.5825, 0.0
1069.569, 0.0
1069.0227, 0.0
1069.0093, 0.0
1068.9961, 0.0
1068.4498, 0.0
1068.4364, 0.0
1068.4231, 0.0
1068.2231, 0.0
1068.21, 0.0
1068.1965, 0.0
1067.6639, 0.0
1067.6505, 0.0
1067.6372, 0.0
1067.5042, 0.0
1067.4906, 0.0
1067.4774, 0.0
1066.4657, 0.0
1066.4525, 0.0
1066.439, 0.0
1066.1862, 0.0
1066.173, 0.0
1066.1595, 0.0
1065.308, 0.0
1065.2948, 0.0
1065.2814, 0.0
1064.6962, 0.0
1064.683, 0.0
1064.6696, 0.0
1064.2972, 0.0
1064.2841, 0.0
1064.2708, 0.0
1063.7789, 0.0
1063.7654, 0.0
1063.7522, 0.0
1063.0079, 0.0
1062.9948, 0.0
1062.9814, 0.0
1062.3569, 0.0
1062.3438, 0.0
1062.3304, 0.0
1061.2413, 0.0
1061.2281, 0.0
1061.215, 0.0
1060.9227, 0.0
1060.9095, 0.0
1060.8962, 0.0
1060.8297, 0.0
1060.8165, 0.0
1060.8032, 0.0
1060.2856, 0.0
1060.2725, 0.0
1060.2593, 0.0
1059.4498, 0.0
1059.4364, 0.0
1059.4232, 0.0
1058.349, 0.0
1058.3358, 0.0
1058.3225, 0.0
1056.7716, 0.0
1056.7584, 0.0
1056.7452, 0.0
1056.3744, 0.0
1056.361, 0.0
1056.3478, 0.0
1055.9241, 0.0
1055.9106, 0.0
1055.8975, 0.0
1055.7518, 0.0
1055.7385, 0.0
1055.7253, 0.0
1055.3018, 0.0
1055.2885, 0.0
1055.275, 0.0
1054.7853, 0.0
1054.7721, 0.0
1054.7589, 0.0
1054.5339, 0.0
1054.5205, 0.0
1054.5073, 0.0
1054.256, 0.0
1054.2427, 0.0
1054.2295, 0.0
1053.7665, 0.0
1053.7532, 0.0
1053.74, 0.0
1053.343, 0.0
1053.3298, 0.0
1053.3167, 0.0
1051.8885, 0.0
1051.8754, 0.0
1051.8621, 0.0
1051.7035, 0.0
1051.6903, 0.0
1051.6771, 0.0
1051.3864, 0.0
1051.3732, 0.0
1051.3599, 0.0
1050.3822, 0.0
1050.3689, 0.0
1050.3557, 0.0
1048.877, 0.0
1048.8638, 0.0
1048.8506, 0.0
1046.5552, 0.0
1046.5419, 0.0
1046.5287, 0.0
1046.3706, 0.0
1046.3574, 0.0
1046.3442, 0.0
1046.3046, 0.0
1046.2913, 0.0
1046.2781, 0.0
1042.7482, 0.0
1042.735, 0.0
1042.7218, 0.0
1042.7086, 0.0
1042.3928, 0.0
1042.3796, 0.0
1042.3665, 0.0
1040.8801, 0.0
1040.8669, 0.0
1040.8539, 0.0
1040.1045, 0.0
1040.0913, 0.0
1040.0781, 0.0
1039.3948, 0.0
1039.3818, 0.0
1039.3687, 0.0
1038.3439, 0.0
1038.3309, 0.0
1038.3176, 0.0
1037.3987, 0.0
1037.3855, 0.0
1037.3723, 0.0
1037.3199, 0.0
1037.3066, 0.0
1037.2935, 0.0
1037.1885, 0.0
1037.1755, 0.0
1037.1622, 0.0
1036.4537, 0.0
1036.4406, 0.0
1036.4274, 0.0
1035.4829, 0.0
1035.4698, 0.0
1035.4567, 0.0
1034.6569, 0.0
1034.6437, 0.0
1034.6307, 0.0
1032.9795, 0.0
1032.9664, 0.0
1032.9532, 0.0
1030.8848, 0.0
1030.8715, 0.0
1030.8585, 0.0
1030.7932, 0.0
1030.78, 0.0
1030.767, 0.0
1030.2959, 0.0
1030.283, 0.0
1030.2697, 0.0
1028.962, 0.0
1028.9489, 0.0
1028.9359, 0.0
1027.9296, 0.0
1027.9163, 0.0
1027.9033, 0.0
1027.0411, 0.0
1027.0282, 0.0
1027.0149, 0.0
1026.6755, 0.0
1026.6622, 0.0
1026.6493, 0.0
1026.2445, 0.0
1026.2316, 0.0
1026.2184, 0.0
1026.0879, 0.0
1026.075, 0.0
1026.0616, 0.0
1024.835, 0.0
1024.8219, 0.0
1024.8087, 0.0
1024.5087, 0.0
1024.4957, 0.0
1024.4827, 0.0
1023.6088, 0.0
1023.5958, 0.0
1023.5828, 0.0
1021.6017, 0.0
1021.5887, 0.0
1021.5757, 0.0
1019.3104, 0.0
1019.2973, 0.0
1019.2843, 0.0
1017.3985, 0.0
1017.3854, 0.0
1017.3724, 0.0
1016.1119, 0.0
1016.0989, 0.0
1016.0859, 0.0
1015.0598, 0.0
1015.0469, 0.0
1015.0339, 0.0
1013.8007, 0.0
1013.7877, 0.0
1013.7747, 0.0
1013.7618, 0.0
1013.7488, 0.0
1013.4503, 0.0
1013.4374, 0.0
1013.4244, 0.0
1012.9315, 0.0
1012.9185, 0.0
1012.9056, 0.0
1012.1274, 0.0
1012.1144, 0.0
1012.1015, 0.0
1011.8811, 0.0
1011.8681, 0.0
1011.8552, 0.0
1011.531, 0.0
1011.518, 0.0
1011.5051, 0.0
1010.4166, 0.0
1010.4036, 0.0
1010.3907, 0.0
1009.7949, 0.0
1009.7819, 0.0
1009.7689, 0.0
1009.3027, 0.0
1009.2899, 0.0
1009.2769, 0.0
1007.0252, 0.0
1007.0122, 0.0
1006.9993, 0.0
1006.0295, 0.0
1006.0167, 0.0
1006.0037, 0.0
1005.9649, 0.0
1005.952, 0.0
1005.9391, 0.0
1005.6805, 0.0
1005.6677, 0.0
1005.6547, 0.0
1004.7889, 0.0
1004.776, 0.0
1004.7631, 0.0
1004.1561, 0.0
1004.1431, 0.0
1004.1301, 0.0
1003.4975, 0.0
1003.4845, 0.0
1003.4717, 0.0
1003.2135, 0.0
1003.2005, 0.0
1003.1877, 0.0
1002.8778, 0.0
1002.865, 0.0
1002.852, 0.0
1002.2842, 0.0
1002.2714, 0.0
1002.2584, 0.0
1001.3297, 0.0
1001.3168, 0.0
1001.3038, 0.0
999.9889, 0.0
999.9759, 0.0
999.9631, 0.0
998.5073, 0.0
998.4943, 0.0
998.4814, 0.0
998.3527, 0.0
998.3399, 0.0
998.3269, 0.0
998.0051, 0.0
997.9921, 0.0
997.9792, 0.0
997.5287, 0.0
997.5159, 0.0
997.503, 0.0
995.8046, 0.0
995.7917, 0.0
995.7789, 0.0
994.8788, 0.0
994.8659, 0.0
994.8531, 0.0
993.0027, 0.0
992.9899, 0.0
992.9772, 0.0
992.6047, 0.0
992.5919, 0.0
992.579, 0.0
991.3468, 0.0
991.3339, 0.0
991.3211, 0.0
990.7693, 0.0
990.7565, 0.0
990.7438, 0.0
990.5258, 0.0
990.5129, 0.0
990.5001, 0.0
989.5511, 0.0
989.5383, 0.0
989.5254, 0.0
989.3459, 0.0
989.3331, 0.0
989.3203, 0.0
988.4615, 0.0
988.4489, 0.0
988.436, 0.0
988.3079, 0.0
988.295, 0.0
988.2822, 0.0
988.1029, 0.0
988.09, 0.0
988.0772, 0.0
987.9363, 0.0
987.9235, 0.0
987.9106, 0.0
986.9374, 0.0
986.9245, 0.0
986.9118, 0.0
986.8989, 0.0
986.8861, 0.0
986.8734, 0.0
986.3229, 0.0
986.3101, 0.0
986.2973, 0.0
985.9517, 0.0
985.9389, 0.0
985.9261, 0.0
985.8493, 0.0
985.8365, 0.0
985.8237, 0.0
984.7364, 0.0
984.7236, 0.0
984.7108, 0.0
983.3683, 0.0
983.3557, 0.0
983.3428, 0.0
983.0361, 0.0
983.0233, 0.0
983.0106, 0.0
982.525, 0.0
982.5123, 0.0
982.4995, 0.0
982.0269, 0.0
982.0142, 0.0
982.0013, 0.0
981.9886, 0.0
981.9757, 0.0
981.963, 0.0
981.8353, 0.0
981.8225, 0.0
981.8098, 0.0
980.7629, 0.0
980.7501, 0.0
980.7373, 0.0
980.7245, 0.0
980.4183, 0.0
980.4055, 0.0
980.3927, 0.0
977.7657, 0.0
977.7529, 0.0
977.7402, 0.0
977.702, 0.0
977.6892, 0.0
977.6765, 0.0
977.3069, 0.0
977.2942, 0.0
977.2815, 0.0
977.1796, 0.0
977.1668, 0.0
977.1541, 0.0
977.0903, 0.0
977.0776, 0.0
977.0649, 0.0
977.0522, 0.0
976.8866, 0.0
976.8739, 0.0
976.8611, 0.0
975.0912, 0.0
975.0786, 0.0
975.0658, 0.0
974.8749, 0.0
974.8622, 0.0
974.8495, 0.0
974.7349, 0.0
974.7222, 0.0
974.7095, 0.0
972.1918, 0.0
972.179, 0.0
972.1663, 0.0
972.1537, 0.0
971.0484, 0.0
971.0356, 0.0
971.0231, 0.0
970.9722, 0.0
970.9595, 0.0
970.9468, 0.0
969.2204, 0.0
969.2078, 0.0
969.1951, 0.0
967.7872, 0.0
967.7745, 0.0
967.7618, 0.0
967.2167, 0.0
967.2041, 0.0
967.1913, 0.0
967.1786, 0.0
967.166, 0.0
967.1533, 0.0
967.1407, 0.0
967.128, 0.0
967.1154, 0.0
967.0012, 0.0
966.9886, 0.0
966.9759, 0.0
966.2663, 0.0
966.2537, 0.0
966.241, 0.0
966.0256, 0.0
966.013, 0.0
966.0003, 0.0
965.747, 0.0
965.7343, 0.0
965.7217, 0.0
965.1898, 0.0
965.1771, 0.0
965.1644, 0.0
964.9619, 0.0
964.9492, 0.0
964.9366, 0.0
964.5189, 0.0
964.5061, 0.0
964.4935, 0.0
964.3289, 0.0
964.3163, 0.0
964.3036, 0.0
964.291, 0.0
964.2783, 0.0
964.2657, 0.0
963.0258, 0.0
963.0132, 0.0
963.0005, 0.0
962.7728, 0.0
962.7603, 0.0
962.7475, 0.0
959.9423, 0.0
959.9296, 0.0
959.9171, 0.0
959.4877, 0.0
959.475, 0.0
959.4625, 0.0
958.7935, 0.0
958.7809, 0.0
958.7683, 0.0
957.9355, 0.0
957.9229, 0.0
957.9103, 0.0
957.7211, 0.0
957.7085, 0.0
957.6959, 0.0
956.9266, 0.0
956.914, 0.0
956.9014, 0.0
956.2335, 0.0
956.2208, 0.0
956.2083, 0.0
956.1326, 0.0
956.12, 0.0
956.1074, 0.0
954.6334, 0.0
954.6208, 0.0
954.6083, 0.0
954.155, 0.0
954.1424, 0.0
954.1298, 0.0
952.8588, 0.0
952.8462, 0.0
952.8336, 0.0
952.6071, 0.0
952.5947, 0.0
952.582, 0.0
952.0664, 0.0
952.0538, 0.0
952.0412, 0.0
951.928, 0.0
951.9154, 0.0
951.903, 0.0
951.3622, 0.0
951.3497, 0.0
951.3372, 0.0
950.4825, 0.0
950.47, 0.0
950.4573, 0.0
949.9674, 0.0
949.9548, 0.0
949.9423, 0.0
949.9297, 0.0
949.9171, 0.0
949.9047, 0.0
949.4273, 0.0
949.4149, 0.0
949.4022, 0.0
948.423, 0.0
948.4103, 0.0
948.3979, 0.0
947.8206, 0.0
947.808, 0.0
947.7955, 0.0
945.7639, 0.0
945.7513, 0.0
945.7388, 0.0
945.5007, 0.0
945.4883, 0.0
945.4756, 0.0
940.6071, 0.0
940.5945, 0.0
940.5821, 0.0
939.9447, 0.0
939.9323, 0.0
939.9197, 0.0
938.1213, 0.0
938.1088, 0.0
938.0963, 0.0
937.7219, 0.0
937.7094, 0.0
937.697, 0.0
936.9482, 0.0
936.9357, 0.0
936.9233, 0.0
936.1002, 0.0
936.0876, 0.0
936.0752, 0.0
935.8258, 0.0
935.8134, 0.0
935.8008, 0.0
934.6915, 0.0
934.6792, 0.0
934.6667, 0.0
934.0687, 0.0
934.0563, 0.0
934.0438, 0.0
933.8071, 0.0
933.7947, 0.0
933.7822, 0.0
933.6826, 0.0
933.6701, 0.0
933.6577, 0.0
933.5082, 0.0
933.4958, 0.0
933.4833, 0.0
932.4252, 0.0
932.4127, 0.0
932.4004, 0.0
931.4672, 0.0
931.4548, 0.0
931.4423, 0.0
930.8329, 0.0
930.8204, 0.0
930.8081, 0.0
929.739, 0.0
929.7266, 0.0
929.7142, 0.0
929.3165, 0.0
929.3042, 0.0
929.2917, 0.0
925.8906, 0.0
925.8782, 0.0
925.8658, 0.0
924.7376, 0.0
924.7253, 0.0
924.7129, 0.0
923.2139, 0.0
923.2014, 0.0
923.189, 0.0
922.1863, 0.0
922.174, 0.0
922.1616, 0.0
921.3448, 0.0
921.3325, 0.0
921.3201, 0.0
920.3431, 0.0
920.3307, 0.0
920.3184, 0.0
918.7364, 0.0
918.7241, 0.0
918.7118, 0.0
918.2301, 0.0
918.2177, 0.0
918.2054, 0.0
918.0078, 0.0
917.9954, 0.0
917.983, 0.0
917.6867, 0.0
917.6743, 0.0
917.662, 0.0
917.5632, 0.0
917.5509, 0.0
917.5385, 0.0
917.3041, 0.0
917.2917, 0.0
917.2794, 0.0
916.3785, 0.0
916.3661, 0.0
916.3539, 0.0
914.8616, 0.0
914.8492, 0.0
914.837, 0.0
914.8246, 0.0
914.8123, 0.0
914.5535, 0.0
914.5411, 0.0
914.5287, 0.0
914.3317, 0.0
914.3193, 0.0
914.3069, 0.0
914.27, 0.0
914.2576, 0.0
914.2454, 0.0
914.0359, 0.0
914.0236, 0.0
914.0112, 0.0
913.6169, 0.0
913.6046, 0.0
913.5923, 0.0
913.4199, 0.0
913.4076, 0.0
913.3953, 0.0
913.1489, 0.0
913.1366, 0.0
913.1242, 0.0
912.7794, 0.0
912.7672, 0.0
912.7548, 0.0
912.287, 0.0
912.2747, 0.0
912.2623, 0.0
911.8808, 0.0
911.8685, 0.0
911.8562, 0.0
911.8439, 0.0
911.8317, 0.0
911.7701, 0.0
911.7578, 0.0
911.7455, 0.0
909.1875, 0.0
909.1752, 0.0
909.163, 0.0
907.0137, 0.0
907.0015, 0.0
906.9891, 0.0
906.486, 0.0
906.4738, 0.0
906.4614, 0.0
906.3264, 0.0
906.3142, 0.0
906.3019, 0.0
905.9093, 0.0
905.8971, 0.0
905.8848, 0.0
903.8987, 0.0
903.8864, 0.0
903.8741, 0.0
903.6292, 0.0
903.6169, 0.0
903.6046, 0.0
902.9922, 0.0
902.98, 0.0
902.9677, 0.0
901.8413, 0.0
901.8291, 0.0
901.8168, 0.0
901.4007, 0.0
901.3885, 0.0
901.3762, 0.0
900.3732, 0.0
900.361, 0.0
900.3488, 0.0
900.0675, 0.0
900.0553, 0.0
900.043, 0.0
899.9453, 0.0
899.933, 0.0
899.9208, 0.0
898.3687, 0.0
898.3565, 0.0
898.3442, 0.0
897.6604, 0.0
897.6481, 0.0
897.6359, 0.0
897.0621, 0.0
897.05, 0.0
897.0377, 0.0
896.0492, 0.0
896.0371, 0.0
896.0248, 0.0
894.8418, 0.0
894.8297, 0.0
894.8174, 0.0
894.8054, 0.0
894.7931, 0.0
894.7809, 0.0
894.3299, 0.0
894.3177, 0.0
894.3055, 0.0
893.6718, 0.0
893.6596, 0.0
893.6475, 0.0
893.2698, 0.0
893.2577, 1.0
893.2454, 0.0
893.2333, 0.0
893.2211, 0.0
891.614, 0.0
891.6018, 0.0
891.5896, 0.0
891.4923, 0.0
891.4801, 0.0
891.468, 0.0
891.4436, 0.0
891.4315, 0.0
891.4193, 0.0
891.2854, 0.0
891.2733, 0.0
891.261, 0.0
890.9569, 0.0
890.9448, 0.0
890.9327, 0.0
890.4583, 0.0
890.446, 0.0
890.434, 0.0
890.215, 0.0
890.2028, 0.0
890.1907, 0.0
889.7531, 0.0
889.7408, 0.0
889.7287, 0.0
888.9509, 0.0
888.9387, 0.0
888.9265, 0.0
888.9144, 0.0
888.9022, 0.0
888.8901, 0.0
888.8779, 0.0
888.8657, 0.0
888.8171, 0.0
888.8051, 0.0
888.7929, 0.0
888.4526, 0.0
888.4406, 0.0
888.4284, 0.0
887.0562, 0.0
887.0441, 0.0
887.032, 0.0
886.7527, 0.0
886.7407, 0.0
886.7286, 0.0
886.6921, 0.0
886.68, 0.0
886.6678, 0.0
885.6365, 0.0
885.6244, 0.0
885.6123, 0.0
884.2544, 0.0
884.2423, 0.0
884.2302, 0.0
884.1091, 0.0
884.0969, 0.0
884.0847, 0.0
883.9151, 0.0
883.903, 0.0
883.8909, 0.0
883.3336, 0.0
883.3215, 0.0
883.3093, 0.0
882.6675, 0.0
882.6553, 0.0
882.6432, 0.0
881.9654, 0.0
881.9533, 0.0
881.9412, 0.0
880.9127, 0.0
880.9006, 0.0
880.8884, 0.0
880.1387, 0.0
880.1265, 0.0
880.1144, 0.0
879.8486, 0.0
879.8364, 0.0
879.8243, 0.0
879.1354, 0.0
879.1232, 0.0
879.1113, 0.0
879.0508, 0.0
879.0387, 0.0
879.0266, 0.0
878.7487, 0.0
878.7366, 0.0
878.7246, 0.0
878.483, 0.0
878.4708, 0.0
878.4589, 0.0
877.4082, 0.0
877.3961, 0.0
877.3841, 0.0
875.9481, 0.0
875.936, 0.0
875.924, 0.0
875.2726, 0.0
875.2606, 0.0
875.2485, 0.0
875.1884, 0.0
875.1762, 0.0
875.1642, 0.0
874.9713, 0.0
874.9592, 0.0
874.9472, 0.0
874.899, 0.0
874.8868, 0.0
874.8749, 0.0
874.465, 0.0
874.453, 0.0
874.4409, 0.0
873.4409, 0.0
873.4289, 0.0
873.4168, 0.0
872.5618, 0.0
872.5498, 0.0
872.5378, 0.0
872.0924, 0.0
872.0803, 0.0
872.0683, 0.0
872.0322, 0.0
872.0201, 0.0
872.0081, 0.0
871.3222, 0.0
871.3102, 0.0
871.2982, 0.0
870.9012, 0.0
870.8892, 0.0
870.8772, 0.0
870.312, 0.0
870.2999, 0.0
870.288, 0.0
869.5667, 0.0
869.5547, 0.0
869.5427, 0.0
868.7136, 0.0
868.7017, 0.0
868.6895, 0.0
867.837, 0.0
867.825, 0.0
867.8129, 0.0
867.8009, 0.0
867.7649, 0.0
867.7529, 0.0
867.741, 0.0
866.9367, 0.0
866.9247, 0.0
866.9127, 0.0
866.6007, 0.0
866.5887, 0.0
866.5768, 0.0
866.3848, 0.0
866.3728, 0.0
866.3608, 0.0
864.3706, 0.0
864.3586, 0.0
864.3466, 0.0
863.4122, 0.0
863.4004, 0.0
863.3884, 0.0
863.2686, 0.0
863.2566, 0.0
863.2446, 0.0
862.9213, 0.0
862.9094, 0.0
862.8974, 0.0
862.6579, 0.0
862.6461, 0.0
862.6341, 0.0
861.928, 0.0
861.916, 1.0
861.904, 0.0
861.4733, 0.0
861.4613, 0.0
861.4493, 0.0
861.2939, 0.0
861.282, 0.0
861.27, 0.0
861.1982, 0.0
861.1863, 0.0
861.1743, 0.0
861.0069, 0.0
860.9949, 0.0
860.9829, 0.0
860.684, 0.0
860.6721, 0.0
860.66, 0.0
859.9428, 0.0
859.931, 0.0
859.9189, 0.0
859.3095, 0.0
859.2975, 0.0
859.2856, 0.0
859.1901, 0.0
859.1781, 0.0
859.1661, 0.0
858.2944, 0.0
858.2823, 0.0
858.2704, 0.0
857.9004, 0.0
857.8884, 0.0
857.8764, 0.0
857.5303, 0.0
857.5184, 0.0
857.5064, 0.0
856.2776, 0.0
856.2656, 0.0
856.2538, 0.0
856.2418, 0.0
856.0391, 0.0
856.0272, 0.0
856.0153, 0.0
855.753, 0.0
855.741, 0.0
855.7291, 0.0
855.7172, 0.0
855.3834, 0.0
855.3715, 0.0
855.3595, 0.0
854.2514, 0.0
854.2395, 0.0
854.2275, 0.0
854.1085, 0.0
854.0965, 0.0
854.0846, 0.0
853.7274, 0.0
853.7155, 0.0
853.7035, 0.0
853.632, 0.0
853.6202, 0.0
853.6083, 0.0
853.5963, 0.0
853.2749, 0.0
853.263, 0.0
853.251, 0.0
853.0129, 0.0
853.0011, 0.0
852.9892, 0.0
852.882, 0.0
852.8702, 0.0
852.8583, 0.0
852.18, 0.0
852.1681, 0.0
852.1561, 0.0
852.1442, 0.0
852.1324, 0.0
852.1205, 0.0
851.9896, 0.0
851.9777, 0.0
851.9659, 0.0
851.7399, 0.0
851.7279, 0.0
851.716, 0.0
851.2761, 0.0
851.264, 0.0
851.2522, 0.0
851.2403, 0.0
850.5151, 0.0
850.5033, 0.0
850.4914, 0.0
850.4796, 0.0
849.5289, 0.0
849.517, 0.0
849.5051, 0.0
848.8994, 0.0
848.8875, 0.0
848.8757, 0.0
847.8547, 0.0
847.8429, 0.0
847.831, 0.0
847.6057, 0.0
847.5938, 1.0
847.5819, 0.0
847.2971, 0.0
847.2852, 0.0
847.2733, 0.0
846.5736, 0.0
846.5618, 0.0
846.5499, 0.0
845.2697, 0.0
845.2579, 0.0
845.246, 0.0
845.1512, 0.0
845.1394, 0.0
845.1276, 0.0
844.405, 0.0
844.3931, 0.0
844.3812, 0.0
844.1918, 0.0
844.1799, 0.0
844.1681, 0.0
843.9904, 0.0
843.9787, 0.0
843.9668, 0.0
843.3749, 0.0
843.363, 0.0
843.3513, 0.0
841.3877, 0.0
841.3758, 0.0
841.364, 0.0
840.194, 0.0
840.1823, 0.0
840.1704, 0.0
840.1232, 0.0
840.1113, 0.0
840.0996, 0.0
839.9106, 0.0
839.8987, 0.0
839.887, 0.0
839.7806, 0.0
839.7689, 0.0
839.757, 0.0
839.0604, 0.0
839.0485, 0.0
839.0367, 0.0
838.1043, 0.0
838.0926, 0.0
838.0808, 0.0
838.069, 0.0
837.1961, 0.0
837.1844, 0.0
837.1725, 0.0
837.1135, 0.0
837.1018, 0.0
837.09, 0.0
836.3826, 0.0
836.3708, 0.0
836.359, 0.0
835.0395, 0.0
835.0277, 0.0
835.016, 0.0
833.0386, 0.0
833.0268, 0.0
833.0151, 0.0
832.8974, 0.0
832.8856, 0.0
832.8739, 0.0
831.9802, 0.0
831.9685, 0.0
831.9568, 0.0
831.7686, 0.0
831.7568, 0.0
831.7451, 0.0
831.2985, 0.0
831.2868, 0.0
831.275, 0.0
830.2883, 0.0
830.2766, 0.0
830.2648, 0.0
829.173, 0.0
829.1612, 0.0
829.1495, 0.0
828.7036, 0.0
828.6919, 0.0
828.6801, 0.0
826.8158, 0.0
826.8041, 0.0
826.7923, 0.0
826.7572, 0.0
826.7454, 0.0
826.7337, 0.0
826.3471, 0.0
826.3353, 0.0
826.3236, 0.0
825.5857, 0.0
825.574, 0.0
825.5623, 0.0
825.5506, 0.0
825.5389, 0.0
824.895, 0.0
824.8833, 0.0
824.8716, 0.0
824.5438, 0.0
824.5322, 0.0
824.5204, 0.0
823.2571, 0.0
823.2453, 0.0
823.2336, 0.0
822.9063, 0.0
822.8945, 0.0
822.8828, 0.0
821.352, 0.0
821.3404, 0.0
821.3286, 0.0
820.9199, 0.0
820.9083, 0.0
820.8966, 0.0
819.7527, 0.0
819.7409, 0.0
819.7293, 0.0
818.2947, 0.0
818.283, 0.0
818.2713, 0.0
818.2247, 0.0
818.2131, 0.0
818.2014, 0.0
817.5253, 0.0
817.5137, 0.0
817.5021, 0.0
817.3273, 0.0
817.3156, 0.0
817.304, 0.0
817.2806, 0.0
817.269, 0.0
817.2574, 0.0
817.1992, 0.0
817.1874, 0.0
817.1758, 0.0
817.1642, 0.0
816.3372, 0.0
816.3255, 0.0
816.3138, 0.0
816.1857, 0.0
816.1741, 0.0
816.1625, 0.0
816.1509, 0.0
816.1042, 0.0
816.0927, 0.0
816.0811, 0.0
815.9064, 0.0
815.8947, 0.0
815.8831, 0.0
815.8715, 0.0
815.8598, 0.0
815.6386, 0.0
815.627, 0.0
815.6154, 0.0
815.2546, 0.0
815.243, 0.0
815.2313, 0.0
815.2197, 0.0
815.2081, 0.0
815.1965, 0.0
814.9055, 0.0
814.8939, 0.0
814.8823, 0.0
814.5914, 0.0
814.5798, 0.0
814.5682, 0.0
814.5566, 0.0
814.5449, 0.0
814.5332, 0.0
814.4518, 0.0
814.4402, 0.0
814.4286, 0.0
813.9052, 0.0
813.8936, 0.0
813.882, 0.0
813.4055, 0.0
813.3938, 0.0
813.3822, 0.0
813.1265, 0.0
813.1149, 0.0
813.1032, 0.0
812.7662, 0.0
812.7546, 0.0
812.7429, 0.0
812.3945, 0.0
812.3829, 0.0
812.3712, 0.0
811.6976, 0.0
811.686, 0.0
811.6744, 0.0
811.3493, 0.0
811.3376, 0.0
811.326, 0.0
811.2332, 0.0
811.2216, 0.0
811.21, 0.0
810.7457, 0.0
810.7341, 0.0
810.7225, 0.0
810.5369, 0.0
810.5253, 0.0
810.5137, 0.0
810.3048, 0.0
810.2932, 0.0
810.2817, 0.0
809.6089, 0.0
809.5973, 0.0
809.5856, 0.0
808.948, 0.0
808.9365, 0.0
808.9249, 0.0
808.4033, 0.0
808.3917, 0.0
808.3802, 0.0
807.8009, 0.0
807.7892, 0.0
807.7776, 0.0
806.9671, 0.0
806.9554, 0.0
806.9438, 0.0
806.0411, 0.0
806.0295, 0.0
806.0179, 0.0
805.6246, 0.0
805.6131, 0.0
805.6014, 0.0
805.5667, 0.0
805.5552, 0.0
805.5436, 0.0
803.7748, 0.0
803.7632, 0.0
803.7517, 0.0
801.5925, 0.0
801.5809, 0.0
801.5693, 0.0
801.5578, 0.0
801.5463, 0.0
801.4078, 0.0
801.3964, 0.0
801.3848, 0.0
800.7388, 0.0
800.7272, 0.0
800.7157, 0.0
799.0674, 0.0
799.0558, 0.0
799.0444, 0.0
797.1216, 0.0
797.1101, 0.0
797.0986, 0.0
796.4199, 0.0
796.4083, 0.0
796.3969, 0.0
795.0173, 0.0
795.0058, 0.0
794.9943, 0.0
794.3165, 0.0
794.305, 0.0
794.2935, 0.0
793.903, 0.0
793.8915, 0.0
793.8799, 0.0
793.5586, 0.0
793.5471, 0.0
793.5356, 0.0
792.5715, 0.0
792.56, 0.0
792.5485, 0.0
792.0782, 0.0
792.0667, 0.0
792.0552, 0.0
791.8029, 0.0
791.7914, 0.0
791.7799, 0.0
791.241, 0.0
791.2296, 0.0
791.2181, 0.0
790.7711, 0.0
790.7596, 0.0
790.7482, 0.0
790.6794, 0.0
790.668, 0.0
790.6564, 0.0
790.1866, 0.0
790.1753, 0.0
790.1638, 0.0
789.4078, 0.0
789.3964, 0.0
789.3849, 0.0
789.1903, 0.0
789.1788, 0.0
789.1674, 0.0
788.9384, 0.0
788.927, 0.0
788.9155, 0.0
788.5836, 0.0
788.5722, 0.0
788.5607, 0.0
788.2059, 0.0
788.1945, 0.0
788.183, 0.0
788.1373, 0.0
788.1259, 0.0
788.1144, 0.0
787.6226, 0.0
787.6111, 0.0
787.5997, 0.0
786.4449, 0.0
786.4334, 0.0
786.422, 0.0
785.8278, 0.0
785.8163, 0.0
785.8049, 0.0
785.3023, 0.0
785.291, 0.0
785.2795, 0.0
784.8684, 0.0
784.857, 0.0
784.8455, 0.0
784.7885, 0.0
784.777, 0.0
784.7656, 0.0
784.5601, 0.0
784.5487, 0.0
784.5374, 0.0
784.0465, 0.0
784.0351, 0.0
784.0237, 0.0
783.6928, 0.0
783.6814, 0.0
783.6699, 0.0
781.1734, 0.0
781.1619, 0.0
781.1505, 0.0
780.8658, 0.0
780.8544, 0.0
780.8431, 0.0
780.3876, 0.0
780.3762, 0.0
780.3648, 0.0
779.7728, 0.0
779.7614, 0.0
779.7501, 0.0
779.4998, 0.0
779.4883, 0.0
779.477, 0.0
778.9877, 0.0
778.9764, 0.0
778.965, 0.0
778.84, 0.0
778.8286, 0.0
778.8172, 0.0
778.4532, 0.0
778.4418, 0.0
778.4305, 0.0
778.2827, 0.0
778.2713, 0.0
778.2599, 0.0
777.3621, 0.0
777.3507, 0.0
777.3393, 0.0
776.8508, 0.0
776.8394, 0.0
776.8281, 0.0
776.6462, 0.0
776.6349, 0.0
776.6236, 0.0
776.351, 0.0
776.3397, 0.0
776.3282, 0.0
775.4315, 0.0
775.4201, 0.0
775.4088, 0.0
775.2953, 0.0
775.2839, 0.0
775.2726, 0.0
774.4445, 0.0
774.433, 0.0
774.4217, 0.0
774.2402, 0.0
774.2289, 0.0
774.2177, 0.0
773.5146, 0.0
773.5033, 0.0
773.492, 0.0
773.4807, 0.0
773.4692, 0.0
773.458, 0.0
773.4467, 0.0
773.4352, 0.0
773.152, 0.0
773.1406, 0.0
773.1293, 0.0
773.118, 0.0
772.087, 0.0
772.0758, 0.0
772.0644, 0.0
771.736, 0.0
771.7248, 0.0
771.7134, 0.0
770.7966, 0.0
770.7853, 0.0
770.774, 0.0
770.1519, 0.0
770.1405, 0.0
770.1292, 0.0
769.1342, 0.0
769.123, 0.0
769.1116, 0.0
767.451, 0.0
767.4397, 0.0
767.4284, 0.0
765.9952, 0.0
765.9839, 0.0
765.9727, 0.0
765.4765, 0.0
765.4651, 0.0
765.4539, 0.0
765.4426, 0.0
764.4169, 0.0
764.4056, 0.0
764.3943, 0.0
764.383, 0.0
764.3718, 0.0
764.3605, 0.0
763.7297, 0.0
763.7184, 0.0
763.7071, 0.0
762.8289, 0.0
762.8176, 0.0
762.8064, 0.0
761.8162, 0.0
761.8049, 0.0
761.7936, 0.0
760.9839, 0.0
760.9727, 0.0
760.9614, 0.0
760.6804, 0.0
760.6691, 0.0
760.6578, 0.0
759.9724, 0.0
759.9611, 0.0
759.9499, 0.0
758.9166, 0.0
758.9055, 0.0
758.8942, 0.0
758.2768, 0.0
758.2656, 0.0
758.2544, 0.0
757.5139, 0.0
757.5026, 0.0
757.4915, 0.0
757.3456, 0.0
757.3344, 0.0
757.3231, 0.0
754.589, 0.0
754.5778, 0.0
754.5666, 0.0
754.4659, 0.0
754.4547, 0.0
754.4435, 0.0
754.2196, 0.0
754.2084, 0.0
754.1973, 0.0
754.186, 0.0
753.4028, 0.0
753.3915, 0.0
753.3804, 0.0
753.3691, 0.0
753.358, 0.0
753.3467, 0.0
753.2797, 0.0
753.2684, 0.0
753.2573, 0.0
753.0224, 0.0
753.0113, 0.0
753.0, 0.0
752.9665, 0.0
752.9554, 0.0
752.9441, 0.0
752.061, 0.0
752.0497, 0.0
752.0386, 0.0
752.0274, 0.0
751.6921, 0.0
751.681, 0.0
751.6699, 0.0
750.6533, 0.0
750.6422, 0.0
750.6309, 0.0
749.4589, 0.0
749.4478, 0.0
749.4366, 0.0
749.2247, 0.0
749.2135, 0.0
749.2024, 0.0
748.6335, 0.0
748.6224, 0.0
748.6113, 0.0
747.686, 0.0
747.6749, 0.0
747.6638, 0.0
747.4631, 0.0
747.452, 0.0
747.4409, 0.0
747.1511, 0.0
747.14, 0.0
747.1289, 0.0
745.1695, 0.0
745.1584, 0.0
745.1473, 0.0
744.8137, 0.0
744.8025, 0.0
744.7914, 0.0
743.9019, 0.0
743.8907, 0.0
743.8796, 0.0
742.6573, 0.0
742.6462, 0.0
742.6352, 0.0
742.3575, 0.0
742.3463, 0.0
742.3353, 0.0
742.2131, 0.0
742.202, 0.0
742.191, 0.0
742.1243, 0.0
742.1132, 0.0
742.1022, 0.0
741.5139, 0.0
741.5027, 0.0
741.4916, 0.0
741.4694, 0.0
741.4583, 1.0
741.4471, 0.0
741.2475, 0.0
741.2364, 0.0
741.2252, 0.0
740.7039, 0.0
740.6927, 0.0
740.6817, 0.0
740.3378, 0.0
740.3268, 0.0
740.3157, 0.0
740.0385, 0.0
740.0274, 0.0
740.0163, 0.0
739.9609, 0.0
739.9498, 0.0
739.9387, 0.0
739.8168, 0.0
739.8056, 0.0
739.7946, 0.0
739.3401, 0.0
739.3291, 0.0
739.318, 0.0
739.3069, 0.0
739.2958, 0.0
739.2847, 0.0
739.1962, 0.0
739.185, 0.0
739.1739, 0.0
738.7419, 0.0
738.7308, 0.0
738.7197, 0.0
738.1438, 0.0
738.1327, 0.0
738.1216, 0.0
737.0923, 0.0
737.0812, 0.0
737.0702, 0.0
737.059, 0.0
737.0148, 0.0
737.0037, 0.0
736.9927, 0.0
736.7603, 0.0
736.7493, 0.0
736.7383, 0.0
736.3732, 0.0
736.3622, 0.0
736.3511, 0.0
735.9199, 0.0
735.9088, 0.0
735.8977, 0.0
735.1792, 0.0
735.1682, 0.0
735.1572, 0.0
734.7925, 0.0
734.7815, 0.0
734.7705, 0.0
734.5496, 0.0
734.5384, 0.0
734.5274, 0.0
734.4833, 0.0
734.4722, 0.0
734.4611, 0.0
734.185, 0.0
734.174, 0.0
734.163, 0.0
734.0856, 0.0
734.0746, 0.0
734.0637, 0.0
733.931, 0.0
733.92, 0.0
733.909, 0.0
733.8207, 0.0
733.8097, 0.0
733.7985, 0.0
733.5999, 0.0
733.5889, 0.0
733.5778, 0.0
733.4564, 0.0
733.4454, 0.0
733.4343, 0.0
733.2025, 0.0
733.1915, 0.0
733.1805, 0.0
732.9818, 0.0
732.9708, 0.0
732.9598, 0.0
732.9376, 0.0
732.9266, 0.0
732.9156, 0.0
732.9046, 0.0
732.8936, 0.0
731.8678, 0.0
731.8568, 0.0
731.8458, 0.0
731.504, 0.0
731.493, 0.0
731.482, 0.0
731.0963, 0.0
731.0853, 0.0
731.0742, 0.0
729.8185, 0.0
729.8074, 0.0
729.7964, 0.0
729.5652, 0.0
729.5542, 0.0
729.5433, 0.0
729.4772, 0.0
729.4662, 0.0
729.4553, 0.0
729.4002, 0.0
729.3892, 0.0
729.3782, 0.0
728.5968, 0.0
728.5859, 0.0
728.5749, 0.0
728.2779, 0.0
728.2668, 0.0
728.2559, 0.0
728.1679, 0.0
728.1569, 0.0
728.1459, 0.0
728.0359, 0.0
728.0249, 0.0
728.0139, 0.0
727.5632, 0.0
727.5522, 0.0
727.5412, 0.0
726.5741, 0.0
726.5631, 0.0
726.5521, 0.0
726.5302, 0.0
726.5192, 0.0
726.5082, 0.0
726.2665, 0.0
726.2556, 0.0
726.2446, 0.0
725.6296, 0.0
725.6187, 0.0
725.6077, 0.0
725.3552, 0.0
725.3442, 0.0
725.3333, 0.0
724.8394, 0.0
724.8284, 0.0
724.8174, 0.0
724.3785, 0.0
724.3677, 0.0
724.3567, 0.0
724.2141, 0.0
724.2031, 0.0
724.1921, 0.0
724.1263, 0.0
724.1154, 0.0
724.1044, 0.0
723.3479, 0.0
723.3369, 0.0
723.326, 0.0
722.8546, 0.0
722.8438, 0.0
722.8328, 0.0
722.6356, 0.0
722.6246, 0.0
722.6136, 0.0
721.5732, 0.0
721.5623, 0.0
721.5513, 0.0
721.0807, 0.0
721.0698, 0.0
721.0588, 0.0
720.8837, 0.0
720.8727, 0.0
720.8618, 0.0
720.4679, 0.0
720.457, 0.0
720.446, 0.0
720.2383, 0.0
720.2272, 0.0
720.2164, 0.0
719.7461, 0.0
719.7351, 0.0
719.7242, 0.0
719.6259, 0.0
719.6149, 0.0
719.6039, 0.0
718.8934, 0.0
718.8826, 0.0
718.8717, 0.0
718.8498, 0.0
718.8389, 0.0
718.8279, 0.0
718.4018, 0.0
718.3909, 0.0
718.38, 0.0
718.1398, 0.0
718.1287, 0.0
718.1179, 0.0
718.0414, 0.0
718.0305, 0.0
718.0196, 0.0
717.9432, 0.0
717.9321, 0.0
717.9213, 0.0
717.7357, 0.0
717.7248, 0.0
717.7138, 0.0
717.0588, 0.0
717.0479, 0.0
717.037, 0.0
716.5242, 0.0
716.5133, 0.0
716.5023, 0.0
716.4805, 0.0
716.4697, 0.0
716.4587, 0.0
716.2951, 0.0
716.2842, 0.0
716.2733, 0.0
716.2624, 0.0
716.0006, 0.0
715.9897, 0.0
715.9788, 0.0
715.8807, 0.0
715.8697, 0.0
715.8588, 0.0
715.5754, 0.0
715.5645, 0.0
715.5536, 0.0
715.1503, 0.0
715.1394, 0.0
715.1285, 0.0
714.2896, 0.0
714.2786, 0.0
714.2678, 0.0
714.2458, 0.0
714.235, 0.0
714.2241, 0.0
714.2132, 0.0
714.2023, 0.0
714.1914, 0.0
714.1805, 0.0
714.1697, 0.0
714.1043, 0.0
714.0934, 0.0
714.0825, 0.0
713.7451, 0.0
713.734, 0.0
713.7231, 0.0
713.3749, 0.0
713.364, 0.0
713.3531, 0.0
712.6674, 0.0
712.6565, 0.0
712.6456, 0.0
712.1997, 0.0
712.1888, 0.0
712.1779, 0.0
711.2864, 0.0
711.2755, 0.0
711.2646, 0.0
710.8082, 0.0
710.7973, 0.0
710.7864, 0.0
710.1672, 0.0
710.1564, 0.0
710.1455, 0.0
708.9188, 0.0
708.9078, 0.0
708.8971, 0.0
708.8428, 0.0
708.8319, 0.0
708.8211, 0.0
707.5087, 0.0
707.498, 0.0
707.4871, 0.0
707.1727, 0.0
707.1619, 1.0
707.1511, 0.0
707.1403, 0.0
706.7718, 0.0
706.7609, 0.0
706.7502, 0.0
705.6996, 0.0
705.6887, 0.0
705.6779, 0.0
705.6237, 0.0
705.613, 0.0
705.6021, 0.0
704.9311, 0.0
704.9202, 1.0
704.9094, 0.0
704.6823, 0.0
704.6714, 0.0
704.6606, 0.0
704.5092, 0.0
704.4983, 0.0
704.4875, 0.0
704.3901, 0.0
704.3792, 0.0
704.3685, 0.0
704.3251, 0.0
704.3144, 0.0
704.3036, 0.0
703.8818, 0.0
703.871, 0.0
703.8602, 0.0
703.2656, 0.0
703.2548, 0.0
703.244, 0.0
703.2332, 0.0
703.0602, 0.0
703.0495, 0.0
703.0387, 0.0
702.2284, 0.0
702.2177, 0.0
702.2068, 0.0
702.196, 0.0
701.6346, 0.0
701.6237, 0.0
701.6129, 0.0
701.5158, 0.0
701.5051, 0.0
701.4941, 0.0
700.6201, 0.0
700.6093, 0.0
700.5986, 0.0
700.5878, 0.0
700.275, 0.0
700.2642, 0.0
700.2534, 0.0
700.2318, 0.0
700.2211, 0.0
700.2103, 0.0
699.9514, 0.0
699.9407, 0.0
699.9299, 0.0
698.2166, 0.0
698.2057, 0.0
698.195, 0.0
696.7742, 0.0
696.7635, 0.0
696.7527, 0.0
695.9891, 0.0
695.9783, 0.0
695.9676, 0.0
695.6773, 0.0
695.6666, 1.0
695.6558, 0.0
695.3011, 0.0
695.2903, 0.0
695.2796, 0.0
694.8713, 0.0
694.8606, 0.0
694.8499, 0.0
694.7424, 0.0
694.7317, 0.0
694.7209, 0.0
694.592, 0.0
694.5814, 0.0
694.5706, 0.0
694.3879, 0.0
694.3772, 0.0
694.3665, 0.0
694.3235, 0.0
694.3128, 0.0
694.3021, 0.0
694.1302, 0.0
694.1196, 0.0
694.1088, 0.0
694.0873, 0.0
694.0765, 0.0
694.0659, 0.0
693.9477, 0.0
693.9369, 0.0
693.9263, 0.0
693.6579, 0.0
693.6471, 0.0
693.6364, 0.0
692.5312, 0.0
692.5206, 0.0
692.5098, 0.0
691.7485, 0.0
691.7378, 0.0
691.7271, 0.0
691.7056, 0.0
691.6949, 0.0
691.6842, 0.0
691.1805, 0.0
691.1698, 0.0
691.1591, 0.0
690.0238, 0.0
690.0131, 0.0
690.0024, 0.0
689.9916, 0.0
689.9274, 0.0
689.9167, 0.0
689.906, 0.0
689.8954, 0.0
689.5956, 0.0
689.5849, 0.0
689.5742, 0.0
689.2211, 0.0
689.2104, 0.0
689.1996, 0.0
688.5258, 0.0
688.5151, 0.0
688.5045, 0.0
688.4402, 0.0
688.4296, 0.0
688.4188, 0.0
688.2905, 0.0
688.2798, 0.0
688.2691, 0.0
688.2156, 0.0
688.205, 0.0
688.1943, 0.0
687.414, 0.0
687.4034, 0.0
687.3928, 0.0
687.2003, 0.0
687.1897, 0.0
687.179, 0.0
686.8371, 0.0
686.8265, 1.0
686.8159, 0.0
686.677, 0.0
686.6662, 0.0
686.6556, 0.0
686.4954, 0.0
686.4847, 0.0
686.4741, 0.0
686.1217, 0.0
686.111, 0.0
686.1003, 0.0
684.9905, 0.0
684.9799, 0.0
684.9692, 0.0
684.8306, 0.0
684.8199, 0.0
684.8093, 0.0
684.7986, 0.0
684.7878, 0.0
684.6705, 0.0
684.6599, 0.0
684.6492, 0.0
684.1695, 0.0
684.1588, 0.0
684.1482, 0.0
684.0415, 0.0
684.0309, 0.0
684.0203, 0.0
683.2424, 0.0
683.2317, 0.0
683.2211, 0.0
682.7844, 0.0
682.7737, 0.0
682.7631, 0.0
682.3903, 0.0
682.3797, 0.0
682.369, 0.0
682.1668, 0.0
682.1562, 0.0
682.1456, 0.0
682.103, 0.0
682.0923, 0.0
682.0817, 0.0
681.326, 0.0
681.3154, 0.0
681.3049, 0.0
680.5285, 0.0
680.5178, 0.0
680.5072, 0.0
679.4763, 0.0
679.4657, 0.0
679.4551, 0.0
678.9134, 0.0
678.9027, 0.0
678.8922, 0.0
677.8837, 0.0
677.8731, 0.0
677.8625, 0.0
677.4275, 0.0
677.4169, 0.0
677.4063, 0.0
677.3109, 0.0
677.3002, 0.0
677.2896, 0.0
677.2789, 0.0
677.2684, 0.0
677.2578, 0.0
677.2366, 0.0
677.226, 0.0
677.2153, 0.0
677.2048, 0.0
676.5686, 0.0
676.558, 0.0
676.5473, 0.0
676.3141, 0.0
676.3035, 0.0
676.293, 0.0
676.2823, 0.0
676.2719, 0.0
676.2612, 1.0
676.2505, 3.0
676.2401, 0.0
676.2294, 1.0
676.2188, 1.0
676.2082, 3.0
676.1976, 1.0
676.187, 3.0
676.1764, 2.0
676.1658, 2.0
676.1553, 0.0
676.1446, 0.0
676.134, 0.0
675.8478, 0.0
675.8373, 0.0
675.8267, 0.0
675.6254, 0.0
675.6148, 0.0
675.6042, 0.0
675.53, 0.0
675.5195, 0.0
675.5089, 0.0
675.4241, 0.0
675.4136, 0.0
675.403, 0.0
675.35, 0.0
675.3394, 0.0
675.3288, 0.0
675.3183, 0.0
675.3076, 2.0
675.297, 3.0
675.2865, 3.0
675.2758, 4.0
675.2653, 5.0
675.2547, 9.0
675.2441, 13.0
675.2335, 17.0
675.2228, 22.0
675.2123, 35.0
675.2017, 45.0
675.1912, 38.0
675.1805, 41.0
675.17, 25.0
675.1594, 15.0
675.1487, 3.0
675.1382, 2.0
675.1276, 0.0
675.1171, 0.0
675.1064, 0.0
675.0959, 0.0
675.0853, 0.0
675.0746, 0.0
675.0641, 0.0
674.9793, 0.0
674.9688, 0.0
674.9581, 0.0
674.6723, 0.0
674.6617, 0.0
674.6511, 0.0
674.5135, 0.0
674.503, 0.0
674.4923, 0.0
674.3442, 0.0
674.3337, 0.0
674.323, 0.0
674.3125, 3.0
674.3019, 6.0
674.2912, 9.0
674.2807, 14.0
674.2701, 16.0
674.2595, 26.0
674.2489, 46.0
674.2384, 68.0
674.2277, 105.0
674.2172, 142.0
674.2065, 189.0
674.196, 219.0
674.1854, 227.0
674.1749, 177.0
674.1642, 139.0
674.1537, 84.0
674.1431, 36.0
674.1326, 11.0
674.1219, 0.0
674.1114, 0.0
674.1008, 0.0
674.0902, 0.0
674.0479, 0.0
674.0373, 0.0
674.0267, 0.0
674.0056, 0.0
673.9949, 0.0
673.9844, 0.0
673.7623, 0.0
673.7516, 0.0
673.7411, 0.0
673.7305, 0.0
673.6882, 0.0
673.6776, 0.0
673.667, 0.0
673.6246, 0.0
673.6141, 0.0
673.6035, 0.0
673.4872, 0.0
673.4766, 0.0
673.466, 0.0
673.4448, 0.0
673.4343, 0.0
673.4238, 0.0
673.3497, 0.0
673.3392, 0.0
673.3285, 0.0
673.318, 0.0
673.3074, 0.0
673.2968, 1.0
673.2863, 0.0
673.2756, 0.0
673.2651, 1.0
673.2545, 3.0
673.244, 1.0
673.2333, 8.0
673.2228, 10.0
673.2123, 15.0
673.2017, 22.0
673.1911, 17.0
673.1805, 21.0
673.17, 7.0
673.1593, 4.0
673.1488, 2.0
673.1382, 1.0
673.1276, 0.0
673.1171, 0.0
673.1065, 0.0
672.895, 0.0
672.8845, 0.0
672.874, 0.0
672.6624, 0.0
672.6519, 0.0
672.6413, 0.0
672.6307, 0.0
672.6202, 0.0
672.4827, 0.0
672.4722, 0.0
672.4617, 0.0
672.3348, 0.0
672.3243, 1.0
672.3137, 1.0
672.3032, 0.0
672.2925, 0.0
672.282, 4.0
672.2715, 4.0
672.2608, 8.0
672.2503, 17.0
672.2397, 30.0
672.2291, 38.0
672.2186, 61.0
672.208, 58.0
672.1974, 88.0
672.187, 98.0
672.1763, 87.0
672.1658, 73.0
672.1552, 33.0
672.1446, 17.0
672.1341, 3.0
672.1235, 0.0
672.1129, 0.0
672.1024, 0.0
672.0918, 0.0
672.0284, 0.0
672.0179, 0.0
672.0073, 0.0
671.9439, 0.0
671.9333, 0.0
671.9227, 0.0
671.9122, 0.0
671.9017, 0.0
671.8911, 0.0
671.7855, 0.0
671.7748, 0.0
671.7643, 0.0
671.5319, 0.0
671.5214, 0.0
671.5109, 0.0
671.5002, 0.0
671.4897, 0.0
671.4792, 0.0
671.4685, 0.0
671.458, 0.0
671.4474, 0.0
671.3735, 0.0
671.363, 0.0
671.3524, 0.0
670.9617, 0.0
670.9512, 0.0
670.9406, 0.0
670.455, 0.0
670.4445, 0.0
670.434, 0.0
670.2757, 0.0
670.2652, 0.0
670.2545, 0.0
670.1702, 0.0
670.1596, 0.0
670.1491, 0.0
670.1385, 0.0
670.0752, 0.0
670.0647, 0.0
670.0542, 0.0
670.0225, 0.0
670.012, 0.0
670.0015, 0.0
669.9276, 0.0
669.9171, 1.0
669.9064, 0.0
669.4951, 0.0
669.4846, 0.0
669.474, 0.0
669.1366, 0.0
669.1261, 0.0
669.1155, 0.0
668.8519, 0.0
668.8414, 0.0
668.8309, 0.0
668.6412, 0.0
668.6307, 0.0
668.6201, 0.0
668.1987, 0.0
668.188, 0.0
668.1776, 0.0
668.0828, 0.0
668.0722, 0.0
668.0617, 0.0
667.5771, 0.0
667.5667, 0.0
667.5562, 0.0
667.2087, 0.0
667.1982, 0.0
667.1877, 0.0
667.1034, 0.0
667.0929, 0.0
667.0824, 0.0
667.0403, 0.0
667.0298, 0.0
667.0192, 0.0
666.9982, 0.0
666.9877, 0.0
666.9772, 0.0
666.493, 0.0
666.4825, 0.0
666.472, 0.0
666.4299, 0.0
666.4194, 0.0
666.4088, 0.0
665.4518, 0.0
665.4412, 0.0
665.4308, 0.0
665.1995, 0.0
665.189, 0.0
665.1785, 0.0
665.1575, 0.0
665.1469, 0.0
665.1364, 0.0
665.0103, 0.0
664.9998, 0.0
664.9893, 0.0
664.4534, 0.0
664.4429, 0.0
664.4324, 0.0
663.9177, 0.0
663.9073, 0.0
663.8967, 0.0
663.7603, 0.0
663.7497, 1.0
663.7392, 0.0
663.4872, 0.0
663.4767, 0.0
663.4663, 0.0
663.4453, 0.0
663.4348, 0.0
663.4242, 0.0
662.8575, 0.0
662.847, 0.0
662.8365, 0.0
662.291, 0.0
662.2806, 0.0
662.2701, 0.0
661.882, 0.0
661.8715, 0.0
661.861, 0.0
661.6513, 0.0
661.6409, 0.0
661.6304, 0.0
661.6199, 0.0
661.6094, 0.0
661.599, 0.0
661.3998, 0.0
661.3893, 0.0
661.3788, 0.0
660.4149, 0.0
660.4045, 0.0
660.394, 0.0
660.2264, 0.0
660.2159, 0.0
660.2054, 0.0
659.9855, 0.0
659.9751, 0.0
659.9646, 0.0
659.4099, 0.0
659.3994, 0.0
659.3889, 0.0
658.6251, 0.0
658.6146, 0.0
658.6042, 0.0
658.4369, 0.0
658.4263, 0.0
658.416, 0.0
658.2486, 0.0
658.2382, 0.0
658.2277, 0.0
658.1336, 0.0
658.1231, 0.0
658.1127, 0.0
658.1023, 0.0
658.0918, 0.0
657.3811, 0.0
657.3705, 0.0
657.3602, 0.0
656.8377, 0.0
656.8273, 0.0
656.8169, 0.0
656.2738, 0.0
656.2634, 0.0
656.253, 0.0
656.0859, 0.0
656.0755, 0.0
656.0651, 0.0
656.0546, 0.0
655.9189, 0.0
655.9084, 0.0
655.898, 0.0
655.8146, 0.0
655.8041, 0.0
655.7937, 0.0
655.2928, 0.0
655.2823, 0.0
655.272, 0.0
654.8338, 0.0
654.8234, 0.0
654.813, 0.0
654.4167, 0.0
654.4063, 0.0
654.3959, 0.0
654.0414, 0.0
654.031, 0.0
654.0206, 0.0
653.9477, 0.0
653.9371, 0.0
653.9268, 0.0
653.7808, 0.0
653.7704, 0.0
653.76, 0.0
652.9891, 0.0
652.9788, 0.0
652.9683, 0.0
652.8954, 0.0
652.8851, 0.0
652.8745, 0.0
652.8537, 0.0
652.8433, 0.0
652.8329, 0.0
652.7393, 0.0
652.7288, 0.0
652.7184, 0.0
652.3644, 0.0
652.3541, 0.0
652.3436, 0.0
651.6568, 0.0
651.6464, 0.0
651.636, 0.0
651.6256, 0.0
651.1055, 0.0
651.0951, 0.0
651.0847, 0.0
651.0639, 0.0
651.0535, 0.0
651.0431, 0.0
650.7623, 0.0
650.752, 0.0
650.7416, 0.0
650.6792, 0.0
650.6688, 0.0
650.6584, 0.0
650.014, 0.0
650.0036, 0.0
649.9932, 0.0
649.4634, 0.0
649.453, 0.0
649.4426, 0.0
649.1102, 0.0
649.0999, 0.0
649.0895, 0.0
649.0792, 0.0
649.0688, 0.0
648.2695, 0.0
648.2591, 0.0
648.2487, 0.0
647.5122, 0.0
647.5018, 0.0
647.4914, 0.0
646.7553, 0.0
646.745, 0.0
646.7346, 0.0
646.5999, 0.0
646.5895, 0.0
646.5792, 0.0
646.4651, 0.0
646.4547, 0.0
646.4445, 0.0
645.3051, 0.0
645.2947, 0.0
645.2844, 0.0
644.7979, 0.0
644.7875, 0.0
644.7772, 0.0
644.353, 0.0
644.3426, 0.0
644.3323, 0.0
643.8358, 0.0
643.8254, 0.0
643.8151, 0.0
642.6677, 0.0
642.6575, 0.0
642.6471, 0.0
642.2029, 0.0
642.1925, 0.0
642.1823, 0.0
641.4594, 0.0
641.4492, 0.0
641.4388, 0.0
641.2117, 0.0
641.2015, 0.0
641.191, 0.0
641.1808, 0.0
641.1705, 0.0
641.1601, 0.0
641.1498, 0.0
641.0156, 0.0
641.0054, 0.0
640.9951, 0.0
639.9327, 0.0
639.9224, 0.0
639.912, 0.0
639.7986, 0.0
639.7884, 0.0
639.778, 0.0
639.7677, 0.0
639.6234, 0.0
639.6131, 0.0
639.6028, 0.0
639.5306, 0.0
639.5204, 0.0
639.51, 0.0
639.4585, 0.0
639.4482, 0.0
639.4379, 0.0
639.4276, 0.0
639.4173, 0.0
638.9433, 0.0
638.933, 0.0
638.9227, 0.0
638.1812, 0.0
638.171, 0.0
638.1606, 0.0
637.9136, 0.0
637.9033, 0.0
637.8929, 0.0
637.6768, 0.0
637.6665, 0.0
637.6562, 0.0
637.3063, 0.0
637.2961, 0.0
637.2858, 0.0
637.0594, 0.0
637.0491, 0.0
637.0388, 0.0
636.9772, 0.0
636.9669, 0.0
636.9565, 0.0
636.9462, 0.0
636.936, 0.0
635.651, 0.0
635.6407, 0.0
635.6304, 0.0
635.1064, 0.0
635.0961, 0.0
635.0859, 0.0
634.7984, 0.0
634.7881, 0.0
634.7778, 0.0
634.285, 0.0
634.2748, 0.0
634.2645, 0.0
634.1721, 0.0
634.1619, 0.0
634.1516, 0.0
633.1154, 0.0
633.1052, 0.0
633.095, 0.0
633.0539, 0.0
633.0437, 1.0
633.0334, 0.0
632.8591, 0.0
632.8489, 0.0
632.8386, 0.0
632.572, 0.0
632.5618, 0.0
632.5516, 0.0
632.5311, 0.0
632.5208, 0.0
632.5105, 0.0
632.3773, 0.0
632.367, 0.0
632.3568, 0.0
632.326, 0.0
632.3158, 0.0
632.3056, 0.0
631.7831, 0.0
631.7728, 0.0
631.7625, 0.0
631.0456, 0.0
631.0355, 0.0
631.0251, 0.0
630.933, 0.0
630.9228, 0.0
630.9125, 0.0
630.8818, 0.0
630.8716, 0.0
630.8614, 0.0
630.7283, 0.0
630.718, 0.0
630.7079, 0.0
630.3599, 0.0
630.3496, 0.0
630.3394, 0.0
630.2576, 0.0
630.2473, 0.0
630.2371, 0.0
630.0734, 0.0
630.0631, 0.0
630.053, 0.0
629.787, 0.0
629.7768, 0.0
629.7665, 0.0
628.5603, 0.0
628.55, 0.0
628.5399, 0.0
628.3763, 0.0
628.3661, 0.0
628.3559, 0.0
627.4673, 0.0
627.4572, 0.0
627.447, 0.0
627.3959, 0.0
627.3858, 0.0
627.3755, 0.0
627.3654, 0.0
627.3041, 0.0
627.2939, 0.0
627.2836, 0.0
626.5897, 0.0
626.5796, 0.0
626.5693, 0.0
626.1002, 0.0
626.0899, 0.0
626.0798, 0.0
624.3066, 0.0
624.2963, 0.0
624.2862, 0.0
623.9808, 0.0
623.9706, 0.0
623.9604, 0.0
623.4006, 0.0
623.3904, 0.0
623.3803, 0.0
623.2479, 0.0
623.2378, 0.0
623.2277, 0.0
622.9937, 0.0
622.9835, 0.0
622.9733, 0.0
622.1801, 0.0
622.17, 0.0
622.1598, 0.0
620.8491, 0.0
620.8389, 0.0
620.8287, 0.0
619.8948, 0.0
619.8846, 0.0
619.8745, 0.0
619.5803, 0.0
619.5702, 0.0
619.5601, 0.0
619.3774, 0.0
619.3672, 0.0
619.3572, 0.0
618.5056, 0.0
618.4954, 0.0
618.4852, 0.0
617.9481, 0.0
617.938, 0.0
617.9278, 0.0
617.8772, 0.0
617.867, 0.0
617.857, 0.0
617.8164, 0.0
617.8063, 0.0
617.7962, 0.0
617.6443, 0.0
617.6342, 0.0
617.624, 0.0
616.976, 0.0
616.9658, 0.0
616.9556, 0.0
616.5306, 0.0
616.5204, 0.0
616.5103, 0.0
616.3889, 0.0
616.3788, 0.0
616.3687, 0.0
616.3383, 0.0
616.3281, 0.0
616.3181, 0.0
616.1967, 0.0
616.1865, 0.0
616.1765, 0.0
615.9742, 0.0
615.964, 0.0
615.9539, 0.0
615.9134, 0.0
615.9033, 0.0
615.8932, 0.0
615.3572, 0.0
615.3472, 0.0
615.337, 0.0
615.3268, 0.0
615.3168, 0.0
615.3066, 0.0
615.1045, 0.0
615.0944, 0.0
615.0843, 0.0
613.7205, 0.0
613.7104, 0.0
613.7003, 0.0
613.6397, 0.0
613.6297, 0.0
613.6196, 0.0
613.4579, 0.0
613.4479, 0.0
613.4377, 0.0
613.4277, 0.0
612.7516, 0.0
612.7415, 0.0
612.7314, 0.0
612.681, 0.0
612.6708, 0.0
612.6608, 0.0
612.3683, 0.0
612.3582, 0.0
612.3481, 0.0
612.1666, 0.0
612.1565, 0.0
612.1465, 0.0
612.0859, 0.0
612.0759, 0.0
612.0657, 0.0
611.9146, 0.0
611.9044, 0.0
611.8943, 0.0
611.8138, 0.0
611.8036, 0.0
611.7936, 0.0
611.6424, 0.0
611.6323, 0.0
611.6222, 0.0
611.1184, 0.0
611.1082, 0.0
611.0982, 0.0
611.0276, 0.0
611.0176, 0.0
611.0076, 0.0
610.9974, 0.0
610.9874, 0.0
610.9772, 0.0
610.9672, 0.0
610.5845, 0.0
610.5745, 0.0
610.5643, 0.0
610.3528, 0.0
610.3428, 0.0
610.3328, 0.0
610.3126, 0.0
610.3026, 0.0
610.2925, 0.0
609.9904, 0.0
609.9803, 0.0
609.9703, 0.0
609.8495, 0.0
609.8394, 0.0
609.8294, 0.0
609.6683, 0.0
609.6583, 0.0
609.6483, 0.0
609.5275, 0.0
609.5174, 0.0
609.5074, 0.0
609.4671, 0.0
609.4571, 0.0
609.4471, 0.0
609.2659, 0.0
609.2559, 0.0
609.2458, 0.0
609.1552, 0.0
609.1452, 0.0
609.1351, 0.0
608.6021, 0.0
608.592, 0.0
608.582, 0.0
608.572, 0.0
608.562, 0.0
608.5518, 0.0
608.5016, 0.0
608.4915, 0.0
608.4815, 0.0
608.4714, 0.0
608.3307, 0.0
608.3206, 0.0
608.3106, 0.0
608.3006, 0.0
608.2804, 0.0
608.2704, 0.0
608.2603, 0.0
608.2201, 0.0
608.2101, 0.0
608.2, 0.0
607.7579, 0.0
607.7478, 0.0
607.7378, 0.0
607.6172, 0.0
607.6072, 0.0
607.5971, 0.0
607.4264, 0.0
607.4164, 0.0
607.4062, 0.0
607.2254, 0.0
607.2154, 0.0
607.2054, 0.0
606.9141, 0.0
606.9041, 0.0
606.894, 0.0
606.884, 0.0
606.874, 0.0
606.8339, 0.0
606.8239, 0.0
606.8138, 0.0
606.7335, 0.0
606.7234, 0.0
606.7134, 0.0
606.5227, 0.0
606.5127, 0.0
606.5026, 0.0
606.3521, 0.0
606.342, 0.0
606.332, 0.0
606.2216, 0.0
606.2115, 0.0
606.2015, 0.0
605.9306, 0.0
605.9205, 0.0
605.9105, 0.0
605.6798, 0.0
605.6698, 0.0
605.6598, 0.0
605.5996, 0.0
605.5895, 0.0
605.5795, 0.0
605.3789, 0.0
605.3689, 0.0
605.3589, 0.0
605.2186, 0.0
605.2086, 0.0
605.1985, 0.0
604.8877, 0.0
604.8777, 0.0
604.8677, 0.0
604.2964, 0.0
604.2864, 0.0
604.2764, 0.0
604.2664, 0.0
604.2564, 0.0
604.2464, 0.0
604.2364, 0.0
604.2263, 0.0
604.2163, 0.0
604.2063, 0.0
604.1962, 0.0
603.8958, 0.0
603.8857, 0.0
603.8758, 0.0
603.6855, 0.0
603.6754, 0.0
603.6654, 0.0
603.3551, 0.0
603.3451, 0.0
603.335, 0.0
603.2049, 0.0
603.1949, 0.0
603.1848, 0.0
602.7545, 0.0
602.7445, 0.0
602.7346, 0.0
602.4244, 0.0
602.4144, 0.0
602.4044, 0.0
602.3243, 0.0
602.3143, 0.0
602.3044, 0.0
601.8844, 0.0
601.8743, 0.0
601.8643, 0.0
601.5845, 0.0
601.5744, 0.0
601.5644, 0.0
601.5545, 0.0
601.5444, 0.0
601.1846, 0.0
601.1747, 0.0
601.1647, 0.0
599.3473, 0.0
599.3374, 0.0
599.3274, 0.0
599.088, 0.0
599.0779, 0.0
599.0679, 0.0
598.9683, 0.0
598.9583, 0.0
598.9483, 0.0
598.8885, 0.0
598.8785, 0.0
598.8685, 0.0
598.7589, 0.0
598.7488, 0.0
598.7389, 0.0
598.1306, 0.0
598.1207, 0.0
598.1107, 0.0
597.9314, 0.0
597.9214, 0.0
597.9114, 0.0
597.5926, 0.0
597.5825, 0.0
597.5726, 0.0
597.5328, 0.0
597.5229, 0.0
597.5128, 0.0
597.4033, 0.0
597.3933, 0.0
597.3833, 0.0
597.3436, 0.0
597.3335, 0.0
597.3236, 0.0
596.6962, 0.0
596.6862, 0.0
596.6763, 0.0
596.109, 0.0
596.099, 0.0
596.0891, 0.0
595.9498, 0.0
595.9399, 0.0
595.9298, 0.0
595.5319, 0.0
595.522, 0.0
595.5121, 0.0
595.2336, 0.0
595.2237, 0.0
595.2138, 0.0
595.0646, 0.0
595.0547, 0.0
595.0447, 0.0
595.005, 0.0
594.995, 0.0
594.9851, 0.0
594.8957, 0.0
594.8856, 0.0
594.8757, 0.0
594.8559, 0.0
594.8459, 0.0
594.836, 0.0
594.5081, 0.0
594.498, 0.0
594.4881, 0.0
594.4683, 0.0
594.4583, 0.0
594.4484, 0.0
593.9119, 0.0
593.902, 0.0
593.8921, 0.0
593.6934, 0.0
593.6835, 0.0
593.6735, 0.0
593.4451, 0.0
593.4352, 0.0
593.4254, 0.0
593.4154, 0.0
593.1871, 0.0
593.1772, 0.0
593.1672, 0.0
593.1573, 0.0
593.1473, 0.0
592.6213, 0.0
592.6115, 0.0
592.6016, 0.0
591.7189, 0.0
591.709, 0.0
591.6991, 0.0
591.6296, 0.0
591.6198, 0.0
591.6098, 0.0
591.5999, 0.0
591.59, 0.0
591.5801, 0.0
591.5702, 0.0
591.481, 0.0
591.4711, 0.0
591.4612, 0.0
591.3917, 0.0
591.3818, 0.0
591.3719, 0.0
590.9954, 0.0
590.9855, 0.0
590.9756, 0.0
590.6784, 0.0
590.6685, 0.0
590.6586, 0.0
590.2129, 0.0
590.203, 0.0
590.1931, 0.0
589.8763, 0.0
589.8665, 0.0
589.8566, 0.0
589.8467, 0.0
589.8368, 0.0
589.5992, 0.0
589.5894, 0.0
589.5794, 0.0
589.5695, 0.0
589.5596, 0.0
589.5497, 0.0
589.4805, 0.0
589.4706, 0.0
589.4606, 0.0
589.3419, 0.0
589.332, 0.0
589.3222, 0.0
589.1737, 0.0
589.1638, 0.0
589.154, 0.0
588.9067, 0.0
588.8968, 0.0
588.8869, 0.0
588.877, 0.0
588.8671, 0.0
588.8572, 0.0
588.7286, 0.0
588.7188, 0.0
588.7089, 0.0
588.6693, 0.0
588.6594, 0.0
588.6496, 0.0
588.6397, 0.0
588.6298, 0.0
588.2244, 0.0
588.2145, 0.0
588.2047, 0.0
587.7402, 0.0
587.7303, 0.0
587.7204, 0.0
587.2166, 0.0
587.2068, 0.0
587.1969, 0.0
586.5847, 0.0
586.5748, 0.0
586.565, 0.0
586.3084, 0.0
586.2985, 0.0
586.2886, 0.0
586.2492, 0.0
586.2393, 0.0
586.2294, 0.0
585.9532, 0.0
585.9433, 0.0
585.9334, 0.0
585.9236, 0.0
585.9137, 0.0
585.8052, 0.0
585.7953, 0.0
585.7855, 0.0
585.0459, 0.0
585.036, 0.0
585.0262, 0.0
584.1294, 0.0
584.1196, 0.0
584.1097, 0.0
583.834, 0.0
583.8241, 0.0
583.8143, 0.0
582.1906, 0.0
582.1807, 0.0
582.171, 0.0
581.7776, 0.0
581.7678, 0.0
581.7581, 0.0
581.5418, 0.0
581.5319, 0.0
581.5221, 0.0
581.2666, 0.0
581.2568, 0.0
581.2469, 0.0
581.2174, 0.0
581.2076, 0.0
581.1979, 0.0
580.4415, 0.0
580.4317, 0.0
580.4219, 0.0
580.3237, 0.0
580.3139, 0.0
580.304, 0.0
580.1077, 0.0
580.0979, 0.0
580.088, 0.0
579.5777, 0.0
579.5679, 0.0
579.5582, 0.0
579.4208, 0.0
579.411, 0.0
579.4011, 0.0
579.2441, 0.0
579.2344, 0.0
579.2246, 0.0
579.0775, 0.0
579.0677, 0.0
579.0577, 0.0
579.0089, 0.0
578.999, 0.0
578.9891, 0.0
578.7145, 0.0
578.7048, 0.0
578.695, 0.0
577.9795, 0.0
577.9697, 0.0
577.9599, 0.0
577.5877, 0.0
577.5779, 0.0
577.568, 0.0
577.5191, 0.0
577.5093, 0.0
577.4995, 0.0
576.6575, 0.0
576.6478, 0.0
576.6379, 0.0
576.0998, 0.0
576.09, 0.0
576.0802, 0.0
575.777, 0.0
575.7672, 0.0
575.7574, 0.0
575.7477, 0.0
575.7379, 0.0
575.7281, 0.0
575.1317, 0.0
575.1221, 0.0
575.1122, 0.0
575.1025, 0.0
574.4869, 0.0
574.4771, 0.0
574.4673, 0.0
573.0615, 0.0
573.0518, 0.0
573.0421, 0.0
572.8079, 0.0
572.7982, 0.0
572.7884, 0.0
571.9498, 0.0
571.9401, 0.0
571.9304, 0.0
571.8816, 0.0
571.8719, 0.0
571.8621, 0.0
571.4626, 0.0
571.4529, 0.0
571.4431, 0.0
571.3846, 0.0
571.3749, 0.0
571.3652, 0.0
571.1606, 0.0
571.1509, 0.0
571.1411, 0.0
570.8002, 0.0
570.7906, 0.0
570.7808, 0.0
570.7711, 0.0
569.6907, 0.0
569.6811, 0.0
569.6713, 0.0
569.3698, 0.0
569.3602, 0.0
569.3503, 0.0
568.4269, 0.0
568.4172, 0.0
568.4075, 0.0
568.2715, 0.0
568.2617, 0.0
568.252, 0.0
567.9995, 0.0
567.9897, 0.0
567.98, 0.0
567.7955, 0.0
567.7858, 0.0
567.776, 0.0
567.5624, 0.0
567.5527, 0.0
567.543, 0.0
567.4265, 0.0
567.4168, 0.0
567.4071, 0.0
567.3391, 0.0
567.3295, 0.0
567.3196, 0.0
567.2711, 0.0
567.2615, 0.0
567.2518, 0.0
566.6986, 0.0
566.6889, 0.0
566.6791, 0.0
566.6307, 0.0
566.621, 0.0
566.6113, 0.0
566.4464, 0.0
566.4367, 0.0
566.4269, 0.0
565.4865, 0.0
565.4769, 0.0
565.467, 0.0
565.3895, 0.0
565.3798, 0.0
565.3702, 0.0
564.9826, 0.0
564.973, 0.0
564.9633, 0.0
564.5662, 0.0
564.5565, 0.0
564.5468, 0.0
564.5372, 0.0
564.0627, 0.0
564.053, 0.0
564.0434, 0.0
563.8982, 0.0
563.8884, 0.0
563.8788, 0.0
563.4144, 0.0
563.4047, 0.0
563.395, 0.0
563.0952, 0.0
563.0854, 0.0
563.0758, 0.0
563.0372, 0.0
563.0275, 0.0
563.0178, 0.0
563.0082, 0.0
562.7084, 0.0
562.6987, 0.0
562.6891, 0.0
561.771, 0.0
561.7614, 0.0
561.7517, 0.0
561.5875, 0.0
561.5778, 0.0
561.5681, 0.0
561.2399, 0.0
561.2302, 0.0
561.2205, 0.0
561.2012, 0.0
561.1915, 0.0
561.1819, 0.0
560.0529, 0.0
560.0432, 0.0
560.0335, 0.0
559.9275, 0.0
559.9178, 0.0
559.9081, 0.0
559.8406, 0.0
559.831, 0.0
559.8215, 0.0
559.1948, 0.0
559.1851, 0.0
559.1755, 0.0
559.1659, 0.0
559.1562, 0.0
559.1465, 0.0
558.5781, 0.0
558.5685, 0.0
558.5588, 0.0
558.347, 0.0
558.3373, 0.0
558.3277, 0.0
558.2314, 0.0
558.2218, 0.0
558.2121, 0.0
558.0388, 0.0
558.0292, 0.0
558.0196, 0.0
557.9329, 0.0
557.9233, 0.0
557.9137, 0.0
557.8463, 0.0
557.8367, 0.0
557.8271, 0.0
557.7597, 0.0
557.7501, 0.0
557.7404, 0.0
556.9418, 0.0
556.9322, 0.0
556.9227, 0.0
556.413, 0.0
556.4033, 0.0
556.3937, 0.0
556.2111, 0.0
556.2015, 0.0
556.1918, 0.0
555.9228, 0.0
555.9131, 0.0
555.9036, 0.0
555.452, 0.0
555.4424, 0.0
555.4328, 0.0
555.4232, 0.0
555.4136, 0.0
555.3464, 0.0
555.3367, 0.0
555.3271, 0.0
555.3175, 0.0
555.3079, 0.0
555.1158, 0.0
555.1063, 0.0
555.0966, 0.0
554.3959, 0.0
554.3864, 0.0
554.3767, 0.0
554.3672, 0.0
554.3575, 0.0
554.348, 0.0
554.204, 0.0
554.1943, 0.0
554.1848, 0.0
554.0218, 0.0
554.0121, 0.0
554.0026, 0.0
553.7914, 0.0
553.7819, 0.0
553.7723, 0.0
553.7532, 0.0
553.7435, 0.0
553.734, 0.0
553.6669, 0.0
553.6573, 0.0
553.6476, 0.0
553.4366, 0.0
553.4271, 0.0
553.4176, 0.0
552.7657, 0.0
552.7562, 0.0
552.7466, 0.0
552.5358, 0.0
552.5262, 0.0
552.5167, 0.0
552.3538, 0.0
552.3442, 0.0
552.3347, 0.0
551.9229, 0.0
551.9132, 0.0
551.9037, 0.0
551.7793, 0.0
551.7697, 0.0
551.7601, 0.0
551.7505, 0.0
551.7409, 0.0
551.7313, 0.0
551.6835, 0.0
551.674, 0.0
551.6643, 0.0
551.5208, 0.0
551.5112, 1.0
551.5016, 0.0
551.272, 0.0
551.2625, 0.0
551.2527, 0.0
551.1571, 0.0
551.1476, 0.0
551.1381, 0.0
550.9849, 0.0
550.9754, 0.0
550.9658, 0.0
550.3632, 0.0
550.3537, 0.0
550.3442, 0.0
550.2007, 0.0
550.1912, 0.0
550.1816, 0.0
550.1052, 0.0
550.0956, 0.0
550.086, 0.0
549.8376, 0.0
549.8279, 0.0
549.8184, 0.0
549.6559, 0.0
549.6464, 0.0
549.6368, 0.0
549.5031, 0.0
549.4935, 0.0
549.484, 0.0
549.4362, 0.0
549.4266, 0.0
549.4171, 0.0
549.1879, 0.0
549.1783, 0.0
549.1688, 0.0
548.8059, 0.0
548.7964, 0.0
548.7867, 0.0
548.7772, 0.0
548.7676, 0.0
548.7581, 0.0
548.3381, 0.0
548.3286, 0.0
548.319, 0.0
547.9373, 0.0
547.9278, 0.0
547.9182, 0.0
547.7753, 0.0
547.7657, 0.0
547.7562, 0.0
547.5272, 0.0
547.5177, 0.0
547.5081, 0.0
547.2507, 0.0
547.2411, 0.0
547.2316, 0.0
547.1839, 0.0
547.1744, 0.0
547.1649, 0.0
546.9552, 0.0
546.9457, 0.0
546.9362, 0.0
546.5168, 0.0
546.5073, 0.0
546.4978, 0.0
545.4978, 0.0
545.4883, 0.0
545.4788, 0.0
545.4503, 0.0
545.4407, 0.0
545.4312, 0.0
544.9935, 0.0
544.9839, 0.0
544.9744, 0.0
544.9174, 0.0
544.9078, 0.0
544.8983, 0.0
544.5463, 0.0
544.5369, 0.0
544.5273, 0.0
543.8143, 0.0
543.8047, 0.0
543.7952, 0.0
543.5767, 0.0
543.5671, 0.0
543.5577, 0.0
542.8264, 0.0
542.8168, 0.0
542.8073, 0.0
542.4655, 0.0
542.456, 0.0
542.4466, 0.0
542.437, 0.0
542.4275, 0.0
542.2092, 0.0
542.1998, 0.0
542.1902, 0.0
541.2227, 0.0
541.2133, 0.0
541.2037, 0.0
541.1469, 0.0
541.1375, 0.0
541.1279, 0.0
540.8815, 0.0
540.8719, 0.0
540.8625, 0.0
540.635, 0.0
540.6256, 0.0
540.6161, 0.0
539.773, 0.0
539.7635, 0.0
539.7541, 0.0
539.4227, 0.0
539.4132, 0.0
539.4038, 0.0
538.5428, 0.0
538.5334, 0.0
538.5238, 0.0
538.3915, 0.0
538.382, 0.0
538.3726, 0.0
538.3064, 0.0
538.2968, 0.0
538.2874, 0.0
538.2496, 0.0
538.2402, 0.0
538.2307, 0.0
538.0699, 0.0
538.0605, 0.0
538.0511, 0.0
537.7581, 0.0
537.7485, 0.0
537.7391, 0.0
537.5124, 0.0
537.5028, 0.0
537.4934, 0.0
537.465, 0.0
537.4556, 0.0
537.4462, 0.0
537.3517, 0.0
537.3422, 0.0
537.3328, 0.0
537.1628, 0.0
537.1533, 0.0
537.1439, 0.0
536.7944, 0.0
536.785, 0.0
536.7756, 0.0
536.4357, 0.0
536.4262, 0.0
536.4168, 0.0
535.8695, 0.0
535.86, 0.0
535.8506, 0.0
535.8411, 0.0
535.8317, 0.0
535.8223, 0.0
535.5016, 0.0
535.4922, 0.0
535.4828, 0.0
535.4733, 0.0
535.4638, 0.0
535.4167, 0.0
535.4073, 0.0
535.3979, 0.0
535.3789, 0.0
535.3695, 0.0
535.3601, 0.0
535.3224, 0.0
535.313, 0.0
535.3036, 0.0
534.9359, 0.0
534.9264, 0.0
534.917, 0.0
534.785, 0.0
534.7756, 0.0
534.7662, 0.0
534.7568, 0.0
534.7285, 0.0
534.7191, 0.0
534.7097, 0.0
534.2951, 0.0
534.2856, 0.0
534.2762, 0.0
533.8806, 0.0
533.8712, 0.0
533.8618, 0.0
533.4381, 0.0
533.4287, 0.0
533.4193, 0.0
532.723, 0.0
532.7136, 0.0
532.7042, 0.0
532.6665, 0.0
532.6571, 0.0
532.6477, 0.0
532.5255, 0.0
532.5161, 0.0
532.5067, 0.0
532.2997, 0.0
532.2903, 0.0
532.2809, 0.0
532.2527, 0.0
532.2433, 1.0
532.2339, 0.0
532.1305, 0.0
532.121, 0.0
532.1118, 0.0
532.1024, 0.0
532.0929, 0.0
532.0835, 0.0
531.5759, 0.0
531.5665, 0.0
531.5571, 0.0
531.3881, 0.0
531.3787, 0.0
531.3693, 0.0
530.7118, 0.0
530.7025, 0.0
530.6931, 0.0
529.5858, 0.0
529.5764, 0.0
529.567, 0.0
529.3794, 0.0
529.37, 0.0
529.3607, 0.0
528.7701, 0.0
528.7607, 0.0
528.7513, 0.0
528.7139, 0.0
528.7045, 0.0
528.6951, 0.0
528.4421, 0.0
528.4327, 0.0
528.4234, 0.0
528.3578, 0.0
528.3484, 0.0
528.339, 0.0
528.1142, 0.0
528.1049, 0.0
528.0955, 0.0
528.0861, 0.0
528.0768, 0.0
528.0674, 0.0
528.0394, 0.0
528.03, 0.0
528.0205, 0.0
527.9644, 0.0
527.955, 0.0
527.9457, 0.0
527.8801, 0.0
527.8707, 0.0
527.8615, 0.0
527.515, 0.0
527.5057, 0.0
527.4962, 0.0
527.4775, 0.0
527.4682, 0.0
527.4588, 0.0
527.3371, 0.0
527.3278, 0.0
527.3184, 0.0
527.2155, 0.0
527.2061, 0.0
527.1967, 0.0
527.0283, 0.0
527.019, 0.0
527.0096, 0.0
526.9442, 0.0
526.9348, 0.0
526.9255, 0.0
526.6822, 0.0
526.6729, 0.0
526.6635, 0.0
526.3549, 0.0
526.3455, 0.0
526.3362, 0.0
526.0464, 0.0
526.037, 0.0
526.0276, 0.0
525.1307, 0.0
525.1214, 0.0
525.112, 0.0
525.0467, 0.0
525.0373, 0.0
525.028, 0.0
524.8972, 0.0
524.8879, 0.0
524.8785, 0.0
524.7572, 0.0
524.7479, 0.0
524.7385, 0.0
523.9172, 0.0
523.908, 0.0
523.8986, 0.0
523.5535, 0.0
523.5443, 0.0
523.5348, 0.0
523.5255, 1.0
523.5162, 0.0
523.4603, 0.0
523.4509, 0.0
523.4416, 0.0
523.1339, 0.0
523.1246, 0.0
523.1153, 0.0
522.9941, 0.0
522.9848, 0.0
522.9755, 0.0
522.929, 0.0
522.9195, 0.0
522.9102, 0.0
522.8264, 0.0
522.817, 0.0
522.8077, 0.0
522.696, 0.0
522.6866, 0.0
522.6772, 0.0
522.2674, 0.0
522.2581, 0.0
522.2487, 0.0
522.2394, 0.0
521.9228, 0.0
521.9135, 0.0
521.9042, 0.0
521.7459, 0.0
521.7366, 0.0
521.7274, 0.0
521.6063, 0.0
521.597, 0.0
521.5877, 0.0
521.5039, 0.0
521.4946, 0.0
521.4853, 0.0
521.476, 0.0
521.4667, 0.0
521.4575, 0.0
521.2713, 0.0
521.262, 0.0
521.2527, 0.0
521.2154, 0.0
521.2061, 0.0
521.1968, 0.0
521.1689, 0.0
521.1596, 0.0
521.1503, 0.0
521.1411, 0.0
521.1318, 0.0
521.1224, 0.0
521.113, 0.0
521.1038, 0.0
521.0944, 0.0
520.7503, 0.0
520.741, 0.0
520.7317, 0.0
520.5178, 0.0
520.5085, 0.0
520.4992, 0.0
520.1646, 0.0
520.1553, 0.0
520.146, 0.0
519.9973, 0.0
519.988, 0.0
519.9787, 0.0
519.4211, 0.0
519.4119, 0.0
519.4026, 0.0
519.254, 0.0
519.2447, 0.0
519.2354, 0.0
519.1519, 0.0
519.1426, 0.0
519.1332, 0.0
519.124, 0.0
519.1147, 0.0
518.9847, 0.0
518.9753, 0.0
518.9662, 0.0
518.9011, 0.0
518.8918, 0.0
518.8826, 0.0
518.7527, 0.0
518.7433, 0.0
518.7341, 0.0
518.2515, 0.0
518.2422, 0.0
518.2329, 0.0
518.001, 0.0
517.9917, 0.0
517.9824, 0.0
517.8618, 0.0
517.8525, 0.0
517.8434, 0.0
516.9996, 0.0
516.9905, 0.0
516.9812, 0.0
516.5179, 0.0
516.5086, 0.0
516.4995, 0.0
516.203, 0.0
516.1938, 0.0
516.1845, 0.0
516.1752, 0.0
516.1661, 0.0
516.1567, 0.0
515.9716, 0.0
515.9623, 0.0
515.953, 0.0
515.8698, 0.0
515.8604, 0.0
515.8513, 0.0
515.5273, 0.0
515.518, 1.0
515.5089, 0.0
515.4533, 0.0
515.444, 0.0
515.4347, 0.0
514.8613, 0.0
514.852, 0.0
514.8428, 0.0
514.5099, 0.0
514.5006, 0.0
514.4915, 0.0
514.3527, 0.0
514.3434, 0.0
514.3343, 0.0
514.325, 0.0
514.3158, 0.0
514.2603, 0.0
514.2511, 1.0
514.2418, 0.0
513.3549, 0.0
513.3458, 0.0
513.3364, 0.0
512.9488, 0.0
512.9395, 0.0
512.9303, 0.0
512.838, 0.0
512.8288, 0.0
512.8195, 0.0
512.515, 0.0
512.5058, 0.0
512.4965, 0.0
511.5098, 0.0
511.5005, 0.0
511.4914, 0.0
510.8739, 0.0
510.8648, 0.0
510.8555, 0.0
510.4595, 0.0
510.4503, 0.0
510.4411, 0.0
510.395, 0.0
510.3858, 0.0
510.3766, 0.0
510.1833, 0.0
510.1741, 0.0
510.1649, 0.0
510.1373, 0.0
510.1281, 0.0
510.1189, 0.0
509.9532, 0.0
509.944, 0.0
509.9348, 0.0
509.8795, 0.0
509.8704, 0.0
509.8611, 0.0
509.5023, 0.0
509.4931, 0.0
509.4839, 0.0
508.8953, 0.0
508.8861, 0.0
508.877, 0.0
508.3162, 0.0
508.307, 0.0
508.2979, 0.0
507.9671, 0.0
507.9579, 0.0
507.9488, 0.0
507.8845, 0.0
507.8753, 0.0
507.8661, 0.0
507.8569, 0.0
507.8477, 0.0
507.8385, 0.0
507.7559, 0.0
507.7467, 1.0
507.7375, 0.0
507.5539, 0.0
507.5446, 0.0
507.5355, 0.0
507.462, 0.0
507.4529, 0.0
507.4437, 0.0
507.4161, 0.0
507.407, 0.0
507.3978, 0.0
506.8287, 0.0
506.8195, 0.0
506.8104, 0.0
506.0675, 0.0
506.0583, 0.0
506.0492, 0.0
505.8475, 0.0
505.8383, 0.0
505.8292, 0.0
505.6916, 0.0
505.6825, 0.0
505.6733, 0.0
505.4626, 0.0
505.4534, 0.0
505.4442, 0.0
505.2977, 0.0
505.2885, 0.0
505.2793, 0.0
505.1511, 0.0
505.1419, 0.0
505.1328, 0.0
505.1236, 0.0
505.1144, 0.0
505.1053, 0.0
505.0961, 0.0
504.3545, 0.0
504.3453, 0.0
504.3362, 0.0
504.1256, 0.0
504.1165, 2.0
504.1074, 0.0
504.0707, 0.0
504.0616, 0.0
504.0524, 0.0
504.025, 0.0
504.0158, 0.0
504.0067, 0.0
503.8878, 0.0
503.8786, 0.0
503.8694, 0.0
503.4487, 0.0
503.4396, 0.0
503.4305, 0.0
503.3207, 0.0
503.3116, 0.0
503.3024, 0.0
503.1835, 0.0
503.1744, 0.0
503.1653, 0.0
503.1561, 0.0
503.147, 0.0
502.9641, 0.0
502.955, 0.0
502.9459, 0.0
502.9185, 0.0
502.9094, 0.0
502.9002, 0.0
502.2606, 0.0
502.2515, 0.0
502.2423, 0.0
502.2332, 0.0
502.2241, 0.0
502.2058, 0.0
502.1967, 0.0
502.1876, 0.0
502.0962, 0.0
502.0871, 0.0
502.0779, 0.0
501.4115, 0.0
501.4024, 0.0
501.3932, 0.0
501.2107, 0.0
501.2016, 0.0
501.1925, 0.0
501.1742, 0.0
501.1651, 0.0
501.156, 0.0
500.937, 0.0
500.9279, 0.0
500.9188, 0.0
500.8459, 0.0
500.8367, 0.0
500.8276, 0.0
500.5084, 0.0
500.4993, 0.0
500.4902, 0.0
500.3717, 0.0
500.3625, 0.0
500.3535, 0.0
500.326, 0.0
500.317, 0.0
500.3078, 0.0
500.1438, 0.0
500.1347, 0.0
500.1255, 0.0
500.0709, 0.0
500.0617, 0.0
500.0526, 0.0
498.6683, 0.0
498.6592, 0.0
498.6501, 0.0
498.6319, 0.0
498.6228, 0.0
498.6137, 0.0
498.4772, 0.0
498.4681, 0.0
498.459, 0.0
498.4135, 0.0
498.4044, 0.0
498.3953, 0.0
497.8132, 0.0
497.804, 0.0
497.7949, 0.0
497.5313, 0.0
497.5222, 0.0
497.5131, 0.0
497.1495, 0.0
497.1405, 0.0
497.1314, 0.0
497.0223, 0.0
497.0132, 0.0
497.0042, 0.0
496.8497, 0.0
496.8406, 0.0
496.8316, 0.0
496.6681, 0.0
496.6589, 0.0
496.6499, 0.0
496.3321, 0.0
496.3229, 0.0
496.3139, 0.0
495.8963, 0.0
495.8872, 0.0
495.8782, 0.0
495.6966, 0.0
495.6876, 0.0
495.6785, 0.0
495.4789, 0.0
495.4698, 0.0
495.4608, 0.0
495.4517, 0.0
495.4426, 0.0
495.3972, 0.0
495.3882, 0.0
495.3791, 0.0
495.2702, 0.0
495.2612, 0.0
495.2521, 0.0
495.2249, 0.0
495.2158, 0.0
495.2068, 0.0
494.8168, 0.0
494.8078, 0.0
494.7987, 0.0
494.5359, 0.0
494.5268, 1.0
494.5177, 0.0
494.2187, 0.0
494.2096, 0.0
494.2006, 0.0
494.1915, 0.0
494.0647, 0.0
494.0556, 0.0
494.0466, 0.0
493.476, 0.0
493.467, 0.0
493.4579, 0.0
493.4488, 0.0
493.4398, 0.0
493.4307, 0.0
493.4217, 0.0
493.4126, 0.0
493.4036, 0.0
493.3764, 0.0
493.3674, 0.0
493.3583, 0.0
493.0596, 0.0
493.0506, 1.0
493.0415, 0.0
492.8424, 0.0
492.8334, 0.0
492.8243, 0.0
492.2184, 0.0
492.2093, 0.0
492.2003, 0.0
491.9381, 0.0
491.929, 0.0
491.92, 0.0
491.9019, 0.0
491.8929, 0.0
491.8839, 0.0
491.6218, 0.0
491.6127, 0.0
491.6037, 0.0
491.2965, 0.0
491.2875, 0.0
491.2784, 0.0
491.2061, 0.0
491.1971, 0.0
491.188, 0.0
491.1791, 0.0
491.17, 0.0
491.161, 0.0
490.9623, 0.0
490.9532, 0.0
490.9442, 0.0
490.9171, 0.0
490.9081, 0.0
490.8991, 0.0
490.89, 0.0
490.881, 0.0
490.872, 0.0
490.8178, 0.0
490.8088, 0.0
490.7998, 0.0
490.6192, 0.0
490.6102, 0.0
490.6011, 0.0
490.3935, 0.0
490.3845, 0.0
490.3755, 0.0
489.4554, 0.0
489.4463, 0.0
489.4373, 0.0
489.3923, 0.0
489.3832, 0.0
489.3742, 0.0
488.8153, 0.0
488.8064, 0.0
488.7974, 0.0
488.473, 0.0
488.464, 0.0
488.455, 0.0
488.3019, 0.0
488.2928, 0.0
488.2839, 0.0
486.6282, 0.0
486.6192, 0.0
486.6102, 0.0
486.3855, 0.0
486.3765, 0.0
486.3675, 0.0
485.9451, 0.0
485.9362, 0.0
485.9272, 0.0
485.8823, 0.0
485.8733, 0.0
485.8643, 0.0
485.7026, 0.0
485.6936, 0.0
485.6846, 0.0
485.6397, 0.0
485.6308, 0.0
485.6218, 0.0
485.5858, 0.0
485.5768, 0.0
485.5678, 0.0
485.5229, 0.0
485.514, 0.0
485.505, 0.0
485.4421, 0.0
485.4331, 0.0
485.4242, 0.0
485.3614, 0.0
485.3524, 0.0
485.3434, 0.0
485.2805, 0.0
485.2715, 0.0
485.2625, 0.0
485.1728, 0.0
485.1638, 0.0
485.1549, 0.0
485.0561, 0.0
485.0471, 0.0
485.0381, 0.0
484.8317, 0.0
484.8227, 0.0
484.8138, 0.0
484.6612, 0.0
484.6523, 0.0
484.6432, 0.0
484.4549, 0.0
484.4459, 0.0
484.437, 0.0
484.3473, 0.0
484.3383, 0.0
484.3293, 0.0
484.2665, 0.0
484.2576, 0.0
484.2486, 0.0
483.5224, 0.0
483.5134, 0.0
483.5045, 0.0
483.2267, 0.0
483.2177, 0.0
483.2088, 0.0
482.7788, 0.0
482.7699, 0.0
482.7609, 0.0
482.5013, 0.0
482.4923, 0.0
482.4834, 0.0
482.2506, 0.0
482.2417, 0.0
482.2327, 0.0
481.7317, 0.0
481.7227, 0.0
481.7138, 0.0
481.4276, 0.0
481.4186, 0.0
481.4097, 0.0
481.3471, 0.0
481.3382, 0.0
481.3292, 0.0
481.3113, 0.0
481.3024, 0.0
481.2934, 0.0
481.1683, 0.0
481.1593, 0.0
481.1504, 0.0
480.2747, 0.0
480.2658, 0.0
480.2568, 0.0
480.2032, 0.0
480.1943, 0.0
480.1854, 0.0
479.9353, 0.0
479.9264, 2.0
479.9175, 0.0
479.5782, 0.0
479.5693, 0.0
479.5604, 0.0
479.498, 0.0
479.489, 0.0
479.4801, 0.0
479.4712, 1.0
479.4622, 0.0
479.1143, 0.0
479.1054, 0.0
479.0964, 0.0
478.8289, 0.0
478.8199, 0.0
478.811, 0.0
478.6416, 0.0
478.6327, 0.0
478.6237, 0.0
478.5346, 0.0
478.5257, 0.0
478.5167, 0.0
478.2048, 0.0
478.1958, 0.0
478.1869, 0.0
478.0176, 0.0
478.0087, 0.0
477.9998, 0.0
477.2694, 0.0
477.2605, 0.0
477.2516, 0.0
477.118, 0.0
477.1092, 0.0
477.1003, 0.0
476.246, 0.0
476.2372, 0.0
476.2282, 0.0
475.7125, 0.0
475.7036, 0.0
475.6947, 0.0
475.4192, 0.0
475.4103, 0.0
475.4014, 0.0
475.3214, 0.0
475.3126, 0.0
475.3037, 0.0
475.1704, 0.0
475.1616, 0.0
475.1527, 0.0
475.1438, 0.0
474.9661, 0.0
474.9572, 0.0
474.9483, 0.0
474.8684, 0.0
474.8596, 0.0
474.8506, 0.0
474.7707, 0.0
474.7618, 0.0
474.753, 0.0
474.4866, 0.0
474.4777, 0.0
474.4688, 0.0
474.3801, 0.0
474.3712, 0.0
474.3623, 0.0
473.8742, 0.0
473.8654, 0.0
473.8565, 0.0
473.4751, 0.0
473.4662, 0.0
473.4573, 0.0
472.8722, 0.0
472.8633, 0.0
472.8545, 0.0
472.8367, 0.0
472.8279, 0.0
472.8191, 0.0
472.6507, 0.0
472.6418, 0.0
472.6329, 0.0
472.6241, 0.0
472.6152, 0.0
472.5355, 0.0
472.5266, 0.0
472.5178, 0.0
472.1989, 0.0
472.19, 0.0
472.1812, 0.0
471.951, 0.0
471.9421, 0.0
471.9332, 0.0
471.3668, 0.0
471.3579, 0.0
471.3491, 0.0
471.1986, 0.0
471.1898, 0.0
471.181, 0.0
471.0218, 0.0
471.0129, 0.0
471.004, 0.0
470.9067, 0.0
470.8979, 0.0
470.8891, 0.0
470.4469, 0.0
470.4381, 0.0
470.4293, 0.0
469.5987, 0.0
469.5899, 0.0
469.581, 0.0
469.5457, 0.0
469.5369, 0.0
469.5281, 0.0
469.4398, 0.0
469.4309, 0.0
469.4221, 0.0
469.2632, 0.0
469.2543, 0.0
469.2455, 0.0
469.166, 0.0
469.1572, 1.0
469.1484, 0.0
468.8571, 0.0
468.8483, 0.0
468.8395, 0.0
468.4424, 0.0
468.4336, 0.0
468.4248, 0.0
468.3983, 0.0
468.3895, 0.0
468.3807, 0.0
467.834, 0.0
467.8252, 0.0
467.8164, 0.0
467.7194, 0.0
467.7106, 0.0
467.7018, 0.0
467.6753, 0.0
467.6665, 0.0
467.6577, 0.0
467.5696, 0.0
467.5607, 0.0
467.5519, 0.0
467.3757, 0.0
467.3669, 0.0
467.3581, 0.0
467.314, 0.0
467.3052, 0.0
467.2964, 0.0
467.2876, 0.0
467.2259, 0.0
467.2171, 0.0
467.2083, 0.0
466.9793, 0.0
466.9705, 0.0
466.9616, 0.0
466.9529, 0.0
466.944, 0.0
466.9176, 0.0
466.9088, 0.0
466.9, 0.0
466.4774, 0.0
466.4686, 0.0
466.4598, 0.0
466.0022, 0.0
465.9934, 0.0
465.9846, 0.0
465.9758, 0.0
465.3601, 0.0
465.3514, 0.0
465.3426, 0.0
465.281, 0.0
465.2723, 0.0
465.2635, 0.0
464.8064, 0.0
464.7976, 0.0
464.7889, 0.0
464.376, 0.0
464.3672, 1.0
464.3584, 0.0
464.1564, 0.0
464.1477, 0.0
464.1389, 0.0
463.8931, 0.0
463.8843, 0.0
463.8755, 0.0
463.5332, 0.0
463.5244, 0.0
463.5157, 0.0
462.9367, 0.0
462.9279, 0.0
462.9192, 0.0
462.8754, 0.0
462.8666, 0.0
462.8578, 0.0
462.814, 0.0
462.8052, 0.0
462.7964, 0.0
462.7263, 0.0
462.7176, 0.0
462.7087, 0.0
462.6211, 0.0
462.6123, 0.0
462.6036, 0.0
462.3669, 0.0
462.3582, 0.0
462.3494, 0.0
462.2705, 0.0
462.2617, 0.0
462.253, 0.0
462.1654, 0.0
462.1566, 0.0
462.1479, 0.0
461.1933, 0.0
461.1846, 0.0
461.1758, 0.0
460.9483, 0.0
460.9395, 1.0
460.9308, 0.0
460.6246, 0.0
460.6158, 0.0
460.6071, 0.0
460.3535, 0.0
460.3447, 0.0
460.336, 0.0
460.2835, 0.0
460.2748, 0.0
460.2661, 0.0
460.0387, 0.0
460.03, 0.0
460.0212, 0.0
459.8727, 0.0
459.8639, 0.0
459.8552, 0.0
459.0776, 0.0
459.0689, 0.0
459.0602, 0.0
459.0515, 0.0
459.0252, 0.0
459.0165, 0.0
459.0078, 0.0
458.2921, 0.0
458.2833, 0.0
458.2746, 0.0
458.2223, 0.0
458.2136, 0.0
458.2048, 0.0
458.0914, 0.0
458.0827, 0.0
458.074, 0.0
457.9867, 0.0
457.978, 0.0
457.9693, 0.0
457.4025, 0.0
457.3938, 0.0
457.3851, 0.0
457.2457, 0.0
457.2369, 0.0
457.2282, 0.0
457.2195, 0.0
456.9668, 0.0
456.9581, 0.0
456.9494, 0.0
456.6967, 0.0
456.6881, 0.0
456.6793, 0.0
456.3311, 0.0
456.3223, 0.0
456.3137, 0.0
456.1744, 0.0
456.1656, 0.0
456.157, 0.0
456.1134, 0.0
456.1047, 0.0
456.096, 0.0
455.8349, 0.0
455.8262, 0.0
455.8175, 0.0
455.5478, 0.0
455.5391, 0.0
455.5304, 0.0
455.1217, 0.0
455.1129, 0.0
455.1043, 0.0
455.0608, 0.0
455.0521, 0.0
455.0434, 0.0
454.8261, 0.0
454.8174, 0.0
454.8087, 0.0
454.6002, 0.0
454.5915, 0.0
454.5827, 0.0
454.4785, 0.0
454.4698, 0.0
454.4611, 0.0
454.3829, 0.0
454.3742, 0.0
454.3656, 0.0
454.3569, 0.0
454.3482, 0.0
454.3395, 0.0
454.3308, 0.0
454.3221, 0.0
454.1918, 0.0
454.1831, 0.0
454.1744, 0.0
453.5753, 0.0
453.5666, 0.0
453.558, 0.0
453.4538, 0.0
453.4451, 0.0
453.4365, 0.0
453.393, 0.0
453.3844, 0.0
453.3757, 0.0
453.2715, 0.0
453.2629, 0.0
453.2542, 0.0
453.2456, 0.0
453.1761, 0.0
453.1674, 0.0
453.1588, 0.0
452.6037, 0.0
452.595, 1.0
452.5863, 0.0
452.5604, 0.0
452.5517, 0.0
452.543, 0.0
452.3783, 0.0
452.3696, 0.0
452.3609, 0.0
452.3523, 0.0
452.3436, 0.0
452.0143, 0.0
452.0056, 0.0
451.9969, 0.0
451.304, 0.0
451.2953, 0.0
451.2867, 0.0
451.1655, 0.0
451.1569, 0.0
451.1482, 0.0
451.1395, 0.0
451.1309, 0.0
450.8279, 0.0
450.8193, 0.0
450.8106, 0.0
450.4214, 0.0
450.4127, 0.0
450.4041, 0.0
450.3002, 0.0
450.2916, 1.0
450.2829, 0.0
450.1187, 0.0
450.11, 0.0
450.1013, 0.0
449.963, 0.0
449.9543, 0.0
449.9457, 0.0
449.3667, 0.0
449.3581, 0.0
449.3494, 0.0
449.3408, 0.0
449.142, 0.0
449.1334, 0.0
449.1248, 0.0
449.1162, 0.0
448.9175, 0.0
448.9089, 0.0
448.9002, 0.0
448.788, 0.0
448.7794, 0.0
448.7707, 0.0
448.7448, 0.0
448.7362, 0.0
448.7276, 0.0
448.4082, 0.0
448.3995, 0.0
448.3909, 0.0
448.3651, 0.0
448.3564, 0.0
448.3477, 0.0
448.1062, 0.0
448.0976, 0.0
448.0889, 0.0
447.8646, 0.0
447.856, 0.0
447.8474, 0.0
447.8215, 0.0
447.8129, 0.0
447.8043, 0.0
447.7957, 0.0
447.3645, 0.0
447.3559, 0.0
447.3473, 0.0
447.33, 0.0
447.3214, 0.0
447.3128, 0.0
447.1749, 0.0
447.1663, 0.0
447.1577, 0.0
446.2015, 0.0
446.1929, 0.0
446.1843, 0.0
446.1499, 0.0
446.1413, 0.0
446.1327, 0.0
445.4443, 0.0
445.4356, 0.0
445.427, 0.0
445.3324, 0.0
445.3238, 0.0
445.3152, 0.0
445.1948, 0.0
445.1862, 0.0
445.1776, 0.0
445.1346, 0.0
445.126, 0.0
445.1174, 0.0
444.9197, 0.0
444.9111, 0.0
444.9025, 0.0
444.5673, 0.0
444.5587, 0.0
444.5501, 0.0
444.5244, 0.0
444.5157, 0.0
444.5071, 0.0
444.3439, 0.0
444.3353, 1.0
444.3267, 0.0
444.1721, 0.0
444.1635, 0.0
444.1549, 0.0
444.0175, 0.0
444.0089, 0.0
444.0003, 0.0
443.923, 0.0
443.9144, 0.0
443.9059, 0.0
443.8629, 0.0
443.8543, 0.0
443.8458, 0.0
443.6912, 0.0
443.6826, 0.0
443.674, 0.0
443.4423, 0.0
443.4337, 0.0
443.4251, 0.0
443.3479, 0.0
443.3393, 0.0
443.3307, 0.0
443.2878, 0.0
443.2792, 0.0
443.2706, 0.0
442.5416, 0.0
442.533, 0.0
442.5244, 0.0
442.5158, 0.0
442.4473, 0.0
442.4387, 0.0
442.4301, 0.0
441.856, 0.0
441.8474, 0.0
441.8388, 0.0
441.796, 0.0
441.7874, 0.0
441.7789, 0.0
441.5818, 0.0
441.5733, 1.0
441.5647, 0.0
441.3763, 0.0
441.3678, 0.0
441.3592, 0.0
441.2736, 0.0
441.265, 0.0
441.2564, 0.0
441.0938, 0.0
441.0852, 0.0
441.0767, 0.0
441.0339, 0.0
441.0253, 0.0
441.0168, 0.0
441.0082, 0.0
440.9996, 0.0
440.9911, 0.0
440.8969, 0.0
440.8884, 0.0
440.8798, 0.0
440.8541, 0.0
440.8456, 0.0
440.837, 0.0
440.6488, 0.0
440.6403, 0.0
440.6317, 0.0
440.3665, 0.0
440.358, 0.0
440.3494, 0.0
440.1356, 0.0
440.1271, 0.0
440.1185, 0.0
439.9646, 0.0
439.9561, 0.0
439.9476, 0.0
439.9305, 0.0
439.9219, 0.0
439.9133, 0.0
439.6399, 0.0
439.6313, 0.0
439.6227, 0.0
439.5544, 0.0
439.5459, 0.0
439.5373, 0.0
439.5287, 0.0
439.5202, 0.0
439.5117, 0.0
439.3494, 0.0
439.3408, 0.0
439.3322, 0.0
439.2383, 0.0
439.2297, 0.0
439.2212, 0.0
438.5126, 0.0
438.504, 0.0
438.4955, 0.0
438.2139, 0.0
438.2054, 0.0
438.1968, 0.0
438.0518, 0.0
438.0432, 0.0
438.0348, 0.0
437.975, 0.0
437.9665, 0.0
437.958, 0.0
437.8983, 0.0
437.8897, 0.0
437.8812, 0.0
437.8556, 0.0
437.8471, 0.0
437.8386, 0.0
437.6851, 0.0
437.6765, 0.0
437.6681, 0.0
437.1481, 0.0
437.1396, 0.0
437.131, 0.0
437.1054, 0.0
437.097, 0.0
437.0884, 0.0
436.901, 0.0
436.8925, 0.0
436.8839, 0.0
436.2453, 0.0
436.2368, 0.0
436.2282, 0.0
436.0836, 0.0
436.0751, 0.0
436.0665, 0.0
436.0155, 0.0
436.007, 1.0
435.9985, 0.0
435.9219, 0.0
435.9134, 0.0
435.9049, 0.0
435.8878, 0.0
435.8793, 0.0
435.8708, 0.0
435.7772, 0.0
435.7687, 0.0
435.7602, 0.0
435.4965, 0.0
435.488, 1.0
435.4795, 0.0
435.3519, 0.0
435.3434, 0.0
435.3349, 0.0
435.2924, 0.0
435.2839, 1.0
435.2754, 0.0
435.1903, 0.0
435.1818, 0.0
435.1733, 0.0
433.9754, 0.0
433.9669, 0.0
433.9584, 0.0
433.933, 0.0
433.9245, 0.0
433.916, 0.0
433.4237, 0.0
433.4152, 0.0
433.4067, 0.0
433.2794, 0.0
433.271, 0.0
433.2625, 0.0
433.1352, 0.0
433.1268, 0.0
433.1183, 0.0
433.0759, 0.0
433.0674, 0.0
433.0589, 0.0
432.8554, 0.0
432.8469, 0.0
432.8384, 0.0
432.83, 0.0
432.7791, 0.0
432.7706, 0.0
432.7621, 0.0
432.5417, 0.0
432.5333, 0.0
432.5247, 0.0
432.3637, 0.0
432.3552, 0.0
432.3468, 0.0
432.3383, 0.0
432.1434, 0.0
432.1349, 0.0
432.1264, 0.0
431.6352, 0.0
431.6268, 0.0
431.6183, 0.0
431.2542, 0.0
431.2458, 0.0
431.2373, 0.0
431.2035, 0.0
431.195, 0.0
431.1866, 0.0
431.1612, 0.0
431.1527, 0.0
431.1443, 0.0
431.1358, 0.0
431.1273, 0.0
431.1188, 0.0
431.102, 0.0
431.0934, 0.0
431.085, 0.0
430.7635, 0.0
430.7551, 0.0
430.7466, 0.0
430.4928, 0.0
430.4844, 0.0
430.476, 0.0
430.4675, 0.0
430.3914, 0.0
430.383, 0.0
430.3745, 0.0
430.1378, 0.0
430.1293, 0.0
430.1209, 0.0
430.1124, 0.0
430.0955, 0.0
430.0871, 0.0
430.0786, 0.0
429.9856, 0.0
429.9772, 0.0
429.9688, 0.0
429.2338, 0.0
429.2254, 0.0
429.2169, 0.0
429.1578, 0.0
429.1494, 0.0
429.141, 0.0
429.1324, 0.0
429.124, 0.0
429.1071, 0.0
429.0987, 2.0
429.0903, 0.0
429.0818, 0.0
429.0734, 0.0
429.065, 0.0
428.3814, 0.0
428.373, 0.0
428.3645, 0.0
427.9345, 0.0
427.926, 0.0
427.9176, 0.0
427.8164, 0.0
427.808, 0.0
427.7995, 0.0
427.7153, 0.0
427.7068, 0.0
427.6984, 0.0
427.3361, 0.0
427.3276, 0.0
427.3192, 0.0
427.2181, 0.0
427.2097, 0.0
427.2012, 0.0
426.9738, 0.0
426.9654, 0.0
426.957, 0.0
426.5612, 0.0
426.5529, 0.0
426.5444, 0.0
426.3929, 0.0
426.3845, 0.0
426.3761, 0.0
426.2667, 0.0
426.2583, 0.0
426.2499, 0.0
426.09, 0.0
426.0816, 0.0
426.0732, 0.0
425.8124, 0.0
425.804, 0.0
425.7956, 0.0
425.6947, 0.0
425.6863, 0.0
425.6779, 0.0
425.6358, 0.0
425.6274, 0.0
425.619, 0.0
425.6106, 0.0
425.3921, 0.0
425.3836, 0.0
425.3752, 0.0
425.35, 0.0
425.3416, 0.0
425.3332, 0.0
425.2408, 0.0
425.2323, 0.0
425.2239, 0.0
425.2156, 0.0
423.8719, 0.0
423.8635, 0.0
423.8551, 0.0
423.7041, 0.0
423.6957, 0.0
423.6873, 0.0
423.6035, 0.0
423.5951, 0.0
423.5867, 0.0
423.2931, 0.0
423.2847, 0.0
423.2764, 0.0
423.2344, 0.0
423.226, 0.0
423.2177, 0.0
422.8656, 0.0
422.8572, 0.0
422.8488, 0.0
422.8405, 0.0
422.631, 0.0
422.6226, 0.0
422.6142, 0.0
422.3545, 0.0
422.3462, 0.0
422.3378, 0.0
422.3294, 0.0
422.1786, 0.0
422.1703, 0.0
422.1619, 0.0
422.1284, 0.0
422.12, 0.0
422.1116, 0.0
421.7349, 0.0
421.7265, 0.0
421.7182, 0.0
421.5508, 0.0
421.5424, 0.0
421.5341, 0.0
421.3249, 0.0
421.3166, 0.0
421.3082, 0.0
421.1576, 0.0
421.1492, 0.0
421.1408, 0.0
421.0656, 0.0
421.0572, 0.0
421.0489, 0.0
420.8733, 0.0
420.8649, 0.0
420.8566, 0.0
420.8482, 0.0
420.8398, 1.0
420.8315, 0.0
420.8231, 0.0
419.5533, 0.0
419.5449, 0.0
419.5366, 0.0
419.5031, 0.0
419.4948, 0.0
419.4865, 0.0
419.4614, 0.0
419.4531, 0.0
419.4447, 0.0
419.3946, 0.0
419.3863, 0.0
419.3779, 0.0
419.3696, 0.0
419.3612, 0.0
419.3029, 0.0
419.2945, 1.0
419.2862, 0.0
419.2194, 0.0
419.211, 0.0
419.2027, 1.0
419.1943, 0.0
418.4603, 0.0
418.452, 0.0
418.4437, 0.0
418.3186, 0.0
418.3103, 0.0
418.3019, 0.0
418.2686, 0.0
418.2603, 0.0
418.2519, 0.0
418.0936, 0.0
418.0853, 0.0
418.0769, 0.0
417.9936, 0.0
417.9852, 0.0
417.9769, 0.0
417.6187, 0.0
417.6104, 0.0
417.6021, 0.0
417.294, 0.0
417.2856, 0.0
417.2773, 0.0
417.1524, 0.0
417.1441, 0.0
417.1357, 0.0
417.0692, 0.0
417.0609, 0.0
417.0526, 0.0
417.0443, 0.0
417.0359, 0.0
417.0276, 0.0
416.9777, 0.0
416.9693, 0.0
416.961, 0.0
416.7114, 0.0
416.703, 0.0
416.6947, 0.0
416.4867, 0.0
416.4784, 0.0
416.4701, 0.0
416.4285, 0.0
416.4202, 0.0
416.4119, 0.0
416.1375, 0.0
416.1292, 0.0
416.1208, 0.0
415.9796, 0.0
415.9713, 0.0
415.9629, 0.0
415.7634, 0.0
415.7551, 0.0
415.7468, 0.0
415.4145, 0.0
415.4062, 0.0
415.3979, 0.0
415.3314, 0.0
415.3232, 0.0
415.3148, 0.0
415.3065, 0.0
415.2982, 0.0
415.2899, 0.0
415.2816, 0.0
414.9744, 0.0
414.966, 0.0
414.9577, 0.0
414.9079, 0.0
414.8996, 0.0
414.8913, 0.0
414.883, 0.0
414.8747, 0.0
414.8664, 0.0
414.2938, 0.0
414.2856, 0.0
414.2772, 0.0
414.2689, 0.0
414.2607, 0.0
414.2523, 0.0
414.244, 0.0
414.2357, 0.0
414.2275, 0.0
414.2191, 0.0
414.0533, 0.0
414.045, 0.0
414.0367, 0.0
414.0284, 0.0
413.5641, 0.0
413.5558, 0.0
413.5475, 0.0
413.4315, 0.0
413.4232, 0.0
413.4149, 0.0
413.3983, 0.0
413.3901, 0.0
413.3818, 0.0
413.3735, 0.0
413.3652, 0.0
413.357, 0.0
413.3487, 0.0
413.3404, 0.0
413.3321, 0.0
413.3238, 0.0
413.3155, 0.0
413.3072, 0.0
413.299, 0.0
413.2906, 1.0
413.2824, 0.0
413.2741, 0.0
413.2658, 0.0
412.9924, 0.0
412.9842, 0.0
412.9759, 0.0
412.5453, 0.0
412.537, 0.0
412.5288, 0.0
412.5039, 0.0
412.4956, 0.0
412.4874, 0.0
412.4294, 0.0
412.4211, 0.0
412.4128, 0.0
412.3963, 0.0
412.388, 0.0
412.3797, 0.0
412.3715, 0.0
412.3632, 0.0
412.0322, 0.0
412.0239, 0.0
412.0157, 0.0
411.9495, 0.0
411.9412, 0.0
411.933, 0.0
411.9247, 0.0
411.8585, 0.0
411.8502, 1.0
411.842, 0.0
411.7344, 0.0
411.7262, 0.0
411.7179, 0.0
411.3128, 0.0
411.3045, 1.0
411.2962, 0.0
411.2797, 0.0
411.2715, 2.0
411.2632, 0.0
411.2384, 0.0
411.2301, 0.0
411.2219, 0.0
411.2136, 0.0
411.2053, 0.0
411.1144, 0.0
411.1061, 0.0
411.0979, 0.0
410.9244, 0.0
410.9161, 0.0
410.9078, 0.0
410.8583, 0.0
410.8501, 0.0
410.8417, 0.0
410.4536, 0.0
410.4453, 0.0
410.4371, 0.0
410.3628, 0.0
410.3545, 0.0
410.3463, 0.0
410.3297, 0.0
410.3215, 0.0
410.3132, 0.0
410.2637, 0.0
410.2555, 0.0
410.2472, 0.0
410.0986, 0.0
410.0903, 0.0
410.0821, 0.0
410.0738, 0.0
409.4056, 0.0
409.3974, 0.0
409.3891, 0.0
409.3561, 0.0
409.3479, 0.0
409.3397, 0.0
409.2407, 0.0
409.2324, 0.0
409.2242, 0.0
409.216, 0.0
409.1995, 0.0
409.1912, 0.0
409.183, 0.0
409.1006, 0.0
409.0923, 0.0
409.084, 0.0
409.0511, 0.0
409.0428, 0.0
409.0346, 0.0
408.8698, 0.0
408.8615, 0.0
408.8533, 0.0
408.4001, 0.0
408.3919, 0.0
408.3837, 0.0
408.3755, 0.0
408.186, 0.0
408.1778, 0.0
408.1696, 0.0
408.0872, 0.0
408.079, 0.0
408.0707, 0.0
408.0626, 0.0
408.0543, 0.0
408.0461, 0.0
407.8897, 0.0
407.8814, 0.0
407.8732, 0.0
407.618, 0.0
407.6099, 0.0
407.6016, 0.0
407.289, 0.0
407.2808, 0.0
407.2725, 0.0
407.141, 0.0
407.1327, 0.0
407.1245, 0.0
407.0916, 0.0
407.0834, 0.0
407.0752, 0.0
407.0258, 0.0
407.0176, 0.0
407.0094, 0.0
406.993, 0.0
406.9847, 0.0
406.9765, 0.0
406.9683, 0.0
406.9601, 0.0
406.9518, 0.0
406.7792, 0.0
406.771, 0.0
406.7628, 0.0
406.3272, 0.0
406.319, 0.0
406.3108, 0.0
406.1958, 0.0
406.1876, 0.0
406.1794, 0.0
406.1629, 0.0
406.1547, 0.0
406.1465, 0.0
405.2599, 0.0
405.2517, 0.0
405.2435, 0.0
405.1943, 0.0
405.1861, 0.0
405.1779, 0.0
405.0958, 0.0
405.0876, 0.0
405.0794, 0.0
405.0712, 0.0
405.063, 0.0
405.0548, 0.0
404.9974, 0.0
404.9892, 0.0
404.981, 0.0
404.8744, 0.0
404.8661, 0.0
404.858, 0.0
404.6202, 0.0
404.612, 0.0
404.6038, 0.0
404.3743, 0.0
404.3661, 0.0
404.3579, 0.0
403.8417, 0.0
403.8335, 0.0
403.8253, 0.0
403.8172, 0.0
403.809, 0.0
403.8008, 0.0
403.4405, 0.0
403.4323, 0.0
403.4241, 0.0
402.9495, 0.0
402.9413, 0.0
402.9331, 0.0
402.8268, 0.0
402.8186, 0.0
402.8104, 0.0
402.4343, 0.0
402.4261, 1.0
402.4179, 0.0
402.3198, 0.0
402.3116, 0.0
402.3034, 0.0
401.7886, 0.0
401.7804, 0.0
401.7722, 0.0
401.6252, 0.0
401.617, 0.0
401.6089, 0.0
401.3884, 0.0
401.3802, 0.0
401.3721, 0.0
400.9312, 0.0
400.9231, 1.0
400.9149, 0.0
400.2786, 0.0
400.2705, 0.0
400.2624, 0.0
400.2542, 0.0
400.246, 0.0
400.2053, 0.0
400.1971, 0.0
400.1889, 0.0
400.0585, 0.0
400.0504, 0.0
400.0422, 0.0
400.034, 0.0
400.0259, 0.0
399.977, 0.0
399.9689, 0.0
399.9607, 0.0
399.9525, 0.0
399.3822, 0.0
399.3741, 0.0
399.3659, 0.0
399.3578, 0.0
399.3496, 0.0
399.1623, 0.0
399.1541, 0.0
399.146, 0.0
399.1216, 0.0
399.1134, 0.0
399.1053, 0.0
399.0728, 0.0
399.0646, 0.0
399.0565, 0.0
398.8692, 0.0
398.8611, 0.0
398.8529, 0.0
398.3566, 0.0
398.3485, 0.0
398.3403, 0.0
397.9256, 0.0
397.9174, 0.0
397.9093, 0.0
397.9012, 0.0
397.576, 0.0
397.5679, 0.0
397.5598, 0.0
397.2104, 0.0
397.2024, 0.0
397.1942, 0.0
397.1861, 0.0
397.178, 0.0
397.1698, 0.0
397.1617, 0.0
397.1374, 0.0
397.1292, 0.0
397.1211, 0.0
397.0237, 0.0
397.0155, 0.0
397.0074, 0.0
396.5366, 0.0
396.5284, 0.0
396.5203, 0.0
396.4554, 0.0
396.4472, 0.0
396.4392, 0.0
396.3093, 0.0
396.3012, 0.0
396.2931, 0.0
396.2687, 0.0
396.2607, 0.0
396.2525, 0.0
396.1308, 0.0
396.1227, 0.0
396.1146, 0.0
395.9686, 0.0
395.9605, 0.0
395.9524, 0.0
395.62, 0.0
395.6119, 0.0
395.6037, 0.0
395.3849, 0.0
395.3768, 0.0
395.3687, 0.0
395.312, 0.0
395.3039, 0.0
395.2957, 0.0
395.2391, 0.0
395.231, 0.0
395.2229, 0.0
395.2148, 0.0
395.2066, 0.0
395.1985, 0.0
395.1904, 0.0
395.0689, 0.0
395.0608, 0.0
395.0528, 0.0
394.7207, 0.0
394.7126, 0.0
394.7045, 0.0
394.5183, 0.0
394.5101, 0.0
394.5021, 0.0
394.3725, 0.0
394.3645, 0.0
394.3564, 0.0
394.324, 0.0
394.3159, 0.0
394.3078, 0.0
393.9599, 0.0
393.9518, 0.0
393.9437, 0.0
393.8951, 0.0
393.8871, 0.0
393.879, 0.0
393.3291, 0.0
393.3211, 0.0
393.313, 0.0
393.3049, 0.0
393.2968, 0.0
393.2887, 0.0
393.2322, 0.0
393.2241, 0.0
393.216, 0.0
393.1594, 0.0
393.1514, 0.0
393.1433, 0.0
393.0867, 0.0
393.0786, 0.0
393.0705, 0.0
392.9978, 0.0
392.9897, 0.0
392.9817, 0.0
392.9655, 0.0
392.9575, 0.0
392.9493, 0.0
392.9413, 0.0
392.9332, 0.0
392.9251, 0.0
392.9171, 0.0
392.3598, 0.0
392.3517, 0.0
392.3436, 0.0
392.3355, 0.0
392.2468, 0.0
392.2387, 0.0
392.2307, 0.0
392.1418, 0.0
392.1338, 0.0
392.1257, 0.0
391.8594, 0.0
391.8513, 0.0
391.8433, 0.0
391.5287, 0.0
391.5207, 0.0
391.5126, 0.0
391.5045, 0.0
391.311, 0.0
391.3029, 1.0
391.2948, 0.0
391.2868, 0.0
391.2303, 0.0
391.2224, 0.0
391.2143, 0.0
391.1981, 0.0
391.1901, 0.0
391.182, 0.0
391.1014, 0.0
391.0934, 0.0
391.0853, 0.0
391.0208, 0.0
391.0127, 0.0
391.0047, 0.0
390.7629, 0.0
390.7549, 0.0
390.7469, 0.0
390.5052, 0.0
390.4971, 0.0
390.4891, 0.0
390.2395, 0.0
390.2314, 0.0
390.2233, 0.0
389.9496, 0.0
389.9416, 0.0
389.9336, 0.0
389.9255, 0.0
389.9175, 0.0
389.9094, 0.0
389.8531, 0.0
389.8451, 0.0
389.837, 0.0
389.5715, 0.0
389.5634, 0.0
389.5554, 0.0
389.5233, 0.0
389.5152, 0.0
389.5071, 0.0
389.4026, 0.0
389.3945, 0.0
389.3865, 0.0
389.3624, 0.0
389.3543, 0.0
389.3463, 0.0
389.2337, 0.0
389.2257, 0.0
389.2176, 0.0
388.4702, 0.0
388.4621, 0.0
388.4541, 0.0
388.4461, 0.0
388.438, 0.0
388.4301, 0.0
388.2292, 0.0
388.2212, 0.0
388.2132, 0.0
388.0686, 0.0
388.0606, 0.0
388.0526, 0.0
387.9241, 0.0
387.9161, 0.0
387.9081, 0.0
387.6994, 0.0
387.6914, 0.0
387.6834, 0.0
387.3784, 0.0
387.3705, 0.0
387.3625, 0.0
387.3544, 0.0
387.3304, 0.0
387.3224, 0.0
387.3143, 0.0
387.2101, 0.0
387.202, 0.0
387.194, 0.0
387.186, 0.0
387.1779, 0.0
387.0416, 0.0
387.0336, 0.0
387.0256, 0.0
386.8492, 0.0
386.8412, 0.0
386.8332, 0.0
386.4646, 0.0
386.4565, 0.0
386.4485, 0.0
386.3684, 0.0
386.3604, 0.0
386.3524, 0.0
386.2563, 0.0
386.2483, 0.0
386.2403, 0.0
386.2242, 0.0
386.2162, 0.0
386.2082, 0.0
386.1761, 0.0
386.1681, 0.0
386.1601, 0.0
386.1521, 0.0
386.1441, 0.0
386.1361, 0.0
385.9759, 0.0
385.9679, 0.0
385.9599, 0.0
385.944, 0.0
385.9359, 0.0
385.9279, 0.0
385.8719, 0.0
385.8639, 0.0
385.8559, 0.0
385.8399, 0.0
385.8318, 0.0
385.8239, 0.0
385.2556, 0.0
385.2477, 1.0
385.2397, 0.0
385.1597, 0.0
385.1516, 0.0
385.1437, 0.0
385.1357, 0.0
385.1277, 0.0
384.8958, 0.0
384.8878, 0.0
384.8797, 0.0
384.6959, 0.0
384.6879, 0.0
384.6799, 0.0
384.4161, 0.0
384.4082, 0.0
384.4002, 0.0
384.0247, 0.0
384.0167, 0.0
384.0088, 0.0
383.6255, 0.0
383.6175, 0.0
383.6095, 0.0
383.5297, 0.0
383.5217, 0.0
383.5137, 0.0
383.402, 0.0
383.394, 0.0
383.386, 0.0
383.378, 0.0
383.2903, 0.0
383.2823, 0.0
383.2743, 0.0
383.2663, 1.0
383.2583, 0.0
383.2504, 0.0
383.2424, 0.0
383.043, 0.0
383.0349, 0.0
383.027, 0.0
382.6124, 0.0
382.6043, 0.0
382.5964, 0.0
382.5327, 0.0
382.5246, 0.0
382.5167, 0.0
382.5087, 0.0
382.2935, 0.0
382.2856, 0.0
382.2776, 0.0
382.2058, 0.0
382.1979, 0.0
382.1899, 0.0
382.1023, 0.0
382.0943, 1.0
382.0863, 0.0
382.0784, 0.0
382.0704, 0.0
382.0624, 0.0
382.0545, 0.0
382.0465, 0.0
381.5528, 0.0
381.5448, 0.0
381.5368, 0.0
381.3458, 0.0
381.3379, 0.0
381.3299, 0.0
381.1787, 0.0
381.1707, 0.0
381.1628, 0.0
380.9559, 0.0
380.948, 0.0
380.94, 0.0
380.9082, 0.0
380.9002, 0.0
380.8923, 0.0
380.3119, 0.0
380.3039, 0.0
380.296, 0.0
380.288, 0.0
380.2801, 1.0
380.2721, 0.0
380.2642, 0.0
380.1211, 0.0
380.1132, 0.0
380.1052, 0.0
380.0655, 0.0
380.0576, 0.0
380.0496, 0.0
379.986, 0.0
379.9781, 0.0
379.9701, 0.0
379.9384, 0.0
379.9304, 0.0
379.9225, 0.0
379.8112, 0.0
379.8033, 0.0
379.7953, 0.0
379.5969, 0.0
379.5889, 0.0
379.581, 0.0
379.4619, 0.0
379.4539, 0.0
379.446, 0.0
379.4142, 0.0
379.4063, 0.0
379.3983, 0.0
379.3904, 0.0
379.3349, 0.0
379.3269, 0.0
379.319, 0.0
379.2951, 0.0
379.2872, 0.0
379.2793, 0.0
379.1841, 0.0
379.1761, 0.0
379.1682, 0.0
379.1126, 0.0
379.1046, 0.0
379.0968, 0.0
378.9539, 0.0
378.946, 0.0
378.9381, 0.0
378.2243, 0.0
378.2165, 0.0
378.2085, 0.0
378.1927, 0.0
378.1847, 0.0
378.1768, 0.0
378.1689, 0.0
377.4717, 0.0
377.4638, 0.0
377.4559, 0.0
377.4322, 0.0
377.4242, 0.0
377.4163, 0.0
377.3292, 0.0
377.3213, 0.0
377.3134, 0.0
377.2896, 0.0
377.2817, 0.0
377.2738, 0.0
377.0205, 0.0
377.0126, 0.0
377.0047, 0.0
376.7673, 0.0
376.7594, 0.0
376.7515, 0.0
376.3007, 0.0
376.2928, 0.0
376.2849, 0.0
376.2612, 0.0
376.2533, 0.0
376.2454, 0.0
376.2375, 0.0
376.2296, 0.0
376.1663, 0.0
376.1584, 0.0
376.1505, 0.0
376.1426, 0.0
375.9766, 0.0
375.9687, 0.0
375.9608, 0.0
375.866, 0.0
375.8581, 0.0
375.8502, 0.0
375.7396, 0.0
375.7317, 0.0
375.7238, 0.0
375.6606, 0.0
375.6527, 0.0
375.6448, 0.0
375.6132, 0.0
375.6053, 0.0
375.5974, 0.0
375.3525, 0.0
375.3447, 0.0
375.3368, 0.0
375.3289, 0.0
375.3131, 0.0
375.3052, 0.0
375.2973, 0.0
375.2499, 0.0
375.242, 0.0
375.2341, 0.0
375.1552, 0.0
375.1473, 0.0
375.1394, 0.0
374.6265, 0.0
374.6186, 0.0
374.6107, 0.0
374.4214, 0.0
374.4135, 0.0
374.4056, 0.0
374.2873, 0.0
374.2794, 0.0
374.2716, 0.0
374.2558, 0.0
374.248, 0.0
374.2401, 0.0
374.1533, 0.0
374.1454, 0.0
374.1375, 0.0
374.1139, 0.0
374.106, 0.0
374.0981, 0.0
373.9878, 0.0
373.9799, 0.0
373.972, 0.0
373.3023, 0.0
373.2945, 0.0
373.2867, 0.0
373.2709, 0.0
373.263, 0.0
373.2551, 0.0
373.2394, 0.0
373.2315, 0.0
373.2236, 0.0
373.2157, 0.0
373.2079, 0.0
373.2, 0.0
373.1764, 0.0
373.1685, 0.0
373.1606, 0.0
373.1449, 0.0
373.137, 0.0
373.1292, 0.0
373.1213, 0.0
373.1134, 0.0
373.1055, 0.0
373.0977, 0.0
373.0898, 0.0
373.0819, 0.0
372.9481, 0.0
372.9402, 0.0
372.9323, 0.0
372.712, 0.0
372.7042, 0.0
372.6963, 0.0
372.2873, 0.0
372.2794, 0.0
372.2715, 0.0
372.2244, 0.0
372.2165, 0.0
372.2086, 0.0
372.1221, 0.0
372.1143, 1.0
372.1064, 0.0
372.0985, 1.0
372.0907, 0.0
372.0829, 0.0
371.8941, 0.0
371.8863, 0.0
371.8784, 0.0
371.7056, 0.0
371.6977, 0.0
371.6898, 0.0
371.6191, 0.0
371.6112, 0.0
371.6034, 0.0
371.4306, 0.0
371.4227, 0.0
371.4149, 0.0
371.407, 0.0
371.3835, 0.0
371.3756, 0.0
371.3678, 0.0
371.2343, 0.0
371.2264, 0.0
371.2185, 0.0
371.2107, 0.0
371.2029, 0.0
371.1949, 0.0
371.1871, 0.0
371.1792, 0.0
371.1714, 0.0
371.1636, 0.0
371.1479, 0.0
371.14, 1.0
371.1322, 0.0
371.1243, 0.0
371.1165, 0.0
371.1086, 2.0
371.1008, 1.0
371.0929, 0.0
371.0851, 0.0
371.0772, 0.0
371.0693, 0.0
371.0615, 0.0
371.0536, 0.0
371.0379, 0.0
371.0301, 0.0
371.0223, 0.0
370.9908, 0.0
370.983, 0.0
370.9751, 0.0
370.7554, 0.0
370.7475, 0.0
370.7397, 0.0
370.3866, 0.0
370.3788, 0.0
370.3709, 0.0
370.1748, 0.0
370.167, 0.0
370.1592, 0.0
370.0494, 0.0
370.0416, 0.0
370.0338, 0.0
369.8613, 0.0
369.8534, 0.0
369.8456, 0.0
369.7123, 0.0
369.7045, 0.0
369.6967, 0.0
369.3833, 0.0
369.3755, 0.0
369.3676, 0.0
369.3598, 0.0
369.2971, 0.0
369.2893, 0.0
369.2815, 0.0
369.164, 0.0
369.1562, 0.0
369.1483, 0.0
368.5847, 0.0
368.5769, 0.0
368.5691, 0.0
368.4674, 0.0
368.4595, 0.0
368.4518, 0.0
368.3813, 0.0
368.3735, 0.0
368.3657, 0.0
368.3109, 0.0
368.3031, 0.0
368.2953, 0.0
368.2562, 0.0
368.2484, 0.0
368.2405, 0.0
368.1076, 0.0
368.0998, 0.0
368.092, 0.0
367.9825, 0.0
367.9747, 0.0
367.9669, 0.0
367.9512, 0.0
367.9435, 0.0
367.9356, 0.0
367.9278, 0.0
367.92, 0.0
367.3651, 0.0
367.3573, 0.0
367.3495, 0.0
367.287, 0.0
367.2792, 0.0
367.2714, 0.0
367.0293, 0.0
367.0215, 0.0
367.0137, 0.0
366.9434, 0.0
366.9356, 0.0
366.9278, 0.0
366.7717, 0.0
366.7639, 0.0
366.756, 0.0
366.1553, 0.0
366.1475, 0.0
366.1397, 0.0
366.0851, 0.0
366.0773, 1.0
366.0695, 0.0
365.9838, 0.0
365.9759, 0.0
365.9682, 0.0
365.7343, 0.0
365.7265, 0.0
365.7187, 0.0
365.1889, 0.0
365.1811, 0.0
365.1733, 0.0
365.1422, 0.0
365.1343, 0.0
365.1266, 0.0
365.1188, 0.0
365.0876, 0.0
365.0799, 0.0
365.0721, 0.0
365.0487, 0.0
365.0409, 0.0
365.0331, 0.0
364.2782, 0.0
364.2704, 0.0
364.2626, 0.0
364.2549, 0.0
364.2471, 0.0
364.2393, 0.0
364.2315, 0.0
364.216, 0.0
364.2082, 0.0
364.2004, 0.0
364.0604, 0.0
364.0526, 0.0
364.0449, 0.0
363.9515, 0.0
363.9438, 0.0
363.936, 0.0
363.9283, 0.0
363.9205, 0.0
363.9127, 0.0
363.9049, 0.0
363.4774, 0.0
363.4697, 0.0
363.4619, 0.0
363.2832, 0.0
363.2754, 0.0
363.2676, 0.0
363.1356, 0.0
363.1278, 0.0
363.1201, 0.0
363.0346, 0.0
363.0269, 0.0
363.0191, 0.0
362.6698, 0.0
362.662, 0.0
362.6542, 0.0
362.53, 0.0
362.5223, 0.0
362.5146, 0.0
362.4835, 0.0
362.4758, 0.0
362.468, 0.0
362.3206, 0.0
362.3128, 0.0
362.305, 0.0
362.2973, 0.0
362.2896, 0.0
362.2818, 0.0
362.274, 0.0
362.2663, 0.0
362.1965, 0.0
362.1887, 0.0
362.1809, 0.0
362.1034, 0.0
362.0956, 0.0
362.0879, 0.0
362.0491, 0.0
362.0413, 0.0
362.0336, 0.0
361.9405, 0.0
361.9328, 0.0
361.925, 0.0
361.9172, 0.0
361.9095, 0.0
361.5917, 0.0
361.5839, 0.0
361.5762, 0.0
361.4832, 0.0
361.4755, 0.0
361.4677, 0.0
361.46, 0.0
361.3902, 0.0
361.3824, 0.0
361.3748, 0.0
361.181, 0.0
361.1733, 0.0
361.1656, 0.0
360.4224, 0.0
360.4146, 0.0
360.4069, 0.0
360.3527, 0.0
360.345, 0.0
360.3372, 0.0
360.2831, 0.0
360.2754, 0.0
360.2676, 0.0
360.2599, 0.0
360.2522, 0.0
359.9196, 0.0
359.9119, 0.0
359.9042, 0.0
359.8964, 0.0
359.8887, 0.0
359.881, 0.0
359.7341, 0.0
359.7263, 0.0
359.7186, 0.0
359.3167, 0.0
359.3091, 0.0
359.3013, 0.0
359.2781, 0.0
359.2704, 0.0
359.2627, 0.0
359.2549, 0.0
359.2395, 0.0
359.2318, 2.0
359.2241, 0.0
359.0773, 0.0
359.0695, 0.0
359.0619, 0.0
359.0542, 0.0
359.0464, 0.0
358.9692, 0.0
358.9615, 0.0
358.9537, 0.0
358.5369, 0.0
358.5291, 0.0
358.5215, 0.0
358.3903, 0.0
358.3826, 0.0
358.3749, 0.0
358.1897, 0.0
358.1819, 0.0
358.1743, 0.0
358.1666, 0.0
358.0046, 0.0
357.9969, 0.0
357.9892, 0.0
357.2878, 0.0
357.2801, 0.0
357.2723, 0.0
357.2569, 0.0
357.2492, 0.0
357.2415, 0.0
357.2184, 0.0
357.2107, 0.0
357.203, 0.0
357.1953, 0.0
357.1876, 0.0
357.1799, 0.0
357.1722, 0.0
357.1645, 0.0
357.1568, 0.0
357.1183, 0.0
357.1106, 0.0
357.1029, 0.0
357.0952, 0.0
357.0875, 0.0
357.0721, 0.0
357.0644, 0.0
357.0567, 0.0
357.0259, 0.0
357.0182, 0.0
357.0105, 0.0
356.8796, 0.0
356.8719, 0.0
356.8642, 0.0
356.7025, 0.0
356.6948, 0.0
356.6871, 0.0
356.6102, 0.0
356.6025, 0.0
356.5948, 0.0
356.564, 0.0
356.5563, 0.0
356.5486, 0.0
356.5332, 0.0
356.5255, 0.0
356.5178, 0.0
356.3947, 0.0
356.387, 0.0
356.3793, 0.0
356.3177, 0.0
356.3101, 0.0
356.3023, 0.0
356.2947, 0.0
356.287, 0.0
356.2332, 0.0
356.2255, 0.0
356.2177, 0.0
356.2101, 0.0
356.2023, 0.0
356.1946, 0.0
356.1409, 0.0
356.1331, 0.0
356.1255, 0.0
356.11, 0.0
356.1024, 0.0
356.0947, 0.0
356.087, 0.0
356.0793, 3.0
356.0716, 0.0
356.0255, 0.0
356.0178, 0.0
356.0101, 0.0
355.7102, 0.0
355.7025, 0.0
355.6949, 0.0
355.3414, 0.0
355.3337, 0.0
355.326, 0.0
355.3183, 0.0
355.3106, 3.0
355.3029, 0.0
355.2953, 1.0
355.2876, 1.0
355.2799, 0.0
355.2722, 0.0
355.2646, 1.0
355.2569, 0.0
355.2491, 0.0
355.2415, 0.0
355.2338, 0.0
355.2261, 0.0
355.2031, 0.0
355.1954, 0.0
355.1877, 0.0
355.157, 0.0
355.1494, 0.0
355.1416, 0.0
355.1339, 0.0
355.1263, 0.0
355.1186, 0.0
355.1109, 0.0
355.1032, 0.0
355.0956, 1.0
355.0879, 1.0
355.0802, 1.0
355.0725, 0.0
355.0649, 0.0
355.0572, 0.0
355.0188, 0.0
355.0111, 0.0
355.0034, 0.0
354.351, 0.0
354.3433, 0.0
354.3357, 0.0
354.3203, 0.0
354.3126, 0.0
354.305, 0.0
354.2973, 1.0
354.2896, 0.0
354.2819, 0.0
354.2436, 0.0
354.2359, 0.0
354.2282, 0.0
354.2206, 0.0
354.2129, 0.0
354.1516, 0.0
354.1438, 0.0
354.1362, 0.0
353.8754, 0.0
353.8678, 0.0
353.8602, 0.0
353.8448, 0.0
353.8371, 0.0
353.8295, 0.0
353.8218, 0.0
353.3926, 0.0
353.385, 0.0
353.3773, 0.0
353.3007, 0.0
353.293, 0.0
353.2853, 0.0
353.2777, 0.0
353.2241, 0.0
353.2164, 0.0
353.2087, 0.0
353.2011, 1.0
353.1934, 0.0
353.1858, 0.0
353.0556, 0.0
353.0479, 0.0
353.0403, 0.0
352.6039, 0.0
352.5962, 0.0
352.5886, 0.0
352.5657, 0.0
352.558, 0.0
352.5503, 0.0
352.2596, 0.0
352.252, 0.0
352.2443, 0.0
352.2213, 0.0
352.2137, 0.0
352.2061, 0.0
352.0837, 0.0
352.076, 0.0
352.0684, 0.0
351.8619, 0.0
351.8543, 0.0
351.8466, 0.0
351.5944, 0.0
351.5868, 0.0
351.5791, 0.0
351.1971, 0.0
351.1895, 0.0
351.1819, 0.0
351.0062, 0.0
350.9986, 0.0
350.9909, 0.0
350.4796, 0.0
350.4719, 0.0
350.4643, 0.0
350.4032, 0.0
350.3956, 0.0
350.388, 0.0
350.0295, 0.0
350.0219, 0.0
350.0143, 0.0
349.9304, 0.0
349.9228, 0.0
349.9151, 0.0
349.8999, 0.0
349.8923, 0.0
349.8846, 0.0
349.8694, 0.0
349.8618, 0.0
349.8541, 0.0
349.7931, 0.0
349.7856, 0.0
349.7779, 0.0
349.3055, 0.0
349.2979, 0.0
349.2903, 0.0
349.2065, 0.0
349.1988, 0.0
349.1912, 0.0
349.1684, 0.0
349.1607, 0.0
349.1532, 0.0
348.978, 0.0
348.9704, 0.0
348.9628, 0.0
348.8867, 0.0
348.879, 0.0
348.8714, 0.0
348.5213, 0.0
348.5137, 0.0
348.5061, 0.0
347.9357, 0.0
347.9281, 0.0
347.9205, 0.0
347.8901, 0.0
347.8825, 0.0
347.8749, 0.0
347.7305, 0.0
347.7229, 0.0
347.7153, 0.0
347.5709, 0.0
347.5633, 0.0
347.5557, 0.0
347.5481, 0.0
347.5405, 0.0
347.4037, 0.0
347.3961, 1.0
347.3886, 0.0
347.1455, 0.0
347.1379, 0.0
347.1303, 0.0
346.7583, 0.0
346.7508, 0.0
346.7432, 0.0
346.7356, 0.0
346.728, 0.0
346.3486, 0.0
346.341, 0.0
346.3335, 0.0
346.1287, 0.0
346.1211, 0.0
346.1136, 0.0
345.3784, 0.0
345.3708, 0.0
345.3633, 0.0
345.2724, 0.0
345.2649, 0.0
345.2573, 0.0
345.2497, 0.0
345.174, 0.0
345.1664, 0.0
345.1588, 0.0
345.0982, 0.0
345.0906, 0.0
345.0831, 0.0
345.0604, 0.0
345.0528, 0.0
345.0452, 0.0
344.9998, 0.0
344.9922, 0.0
344.9846, 0.0
344.8787, 0.0
344.8712, 1.0
344.8636, 0.0
344.5609, 0.0
344.5533, 0.0
344.5457, 0.0
344.281, 0.0
344.2734, 1.0
344.2659, 0.0
344.0164, 0.0
344.0089, 0.0
344.0013, 0.0
343.9937, 0.0
343.9862, 0.0
343.8199, 0.0
343.8123, 0.0
343.8047, 0.0
343.427, 0.0
343.4195, 0.0
343.4119, 0.0
343.2533, 0.0
343.2458, 0.0
343.2382, 0.0
343.1854, 0.0
343.1778, 0.0
343.1703, 0.0
343.1627, 0.0
343.1552, 0.0
343.1476, 0.0
343.1325, 0.0
343.1249, 0.0
343.1174, 0.0
343.1023, 0.0
343.0948, 0.0
343.0872, 0.0
343.0721, 0.0
343.0645, 0.0
343.057, 0.0
342.9136, 0.0
342.9061, 0.0
342.8985, 0.0
342.2272, 0.0
342.2196, 0.0
342.2121, 0.0
342.197, 0.0
342.1895, 0.0
342.1819, 0.0
342.1593, 0.0
342.1518, 0.0
342.1442, 0.0
342.1367, 0.0
342.1291, 0.0
342.1216, 0.0
342.0613, 0.0
342.0538, 0.0
342.0463, 0.0
341.9633, 0.0
341.9558, 0.0
341.9482, 0.0
341.8578, 0.0
341.8503, 0.0
341.8427, 0.0
341.6845, 0.0
341.6769, 0.0
341.6694, 0.0
341.6544, 0.0
341.6468, 0.0
341.6393, 0.0
341.6092, 0.0
341.6017, 0.0
341.5941, 0.0
341.5715, 0.0
341.564, 0.0
341.5564, 0.0
341.3456, 0.0
341.338, 0.0
341.3305, 0.0
341.323, 0.0
341.3155, 0.0
341.3079, 0.0
341.3004, 0.0
341.2928, 0.0
341.2853, 0.0
341.2778, 0.0
341.2703, 0.0
341.2627, 0.0
341.2552, 0.0
341.2477, 0.0
341.2402, 1.0
341.2327, 0.0
341.1573, 0.0
341.1498, 0.0
341.1423, 0.0
340.5704, 0.0
340.5629, 0.0
340.5554, 0.0
340.3448, 0.0
340.3373, 0.0
340.3298, 0.0
340.2696, 0.0
340.2621, 0.0
340.2546, 0.0
340.1944, 0.0
340.1869, 0.0
340.1794, 0.0
340.1719, 0.0
340.1268, 0.0
340.1193, 1.0
340.1118, 0.0
340.0366, 0.0
340.0291, 1.0
340.0216, 0.0
339.2704, 0.0
339.2629, 0.0
339.2554, 0.0
339.2254, 0.0
339.2179, 0.0
339.2104, 0.0
339.2029, 0.0
339.1954, 1.0
339.1879, 0.0
339.1729, 0.0
339.1654, 0.0
339.1579, 0.0
339.1128, 0.0
339.1053, 0.0
339.0978, 0.0
339.0903, 0.0
339.0678, 0.0
339.0603, 0.0
339.0528, 0.0
338.9853, 0.0
338.9778, 0.0
338.9702, 0.0
338.4002, 0.0
338.3927, 0.0
338.3852, 0.0
338.3027, 0.0
338.2953, 0.0
338.2878, 0.0
338.2802, 0.0
338.2728, 0.0
337.6284, 0.0
337.6209, 0.0
337.6134, 0.0
337.4936, 0.0
337.4861, 0.0
337.4786, 0.0
337.4487, 0.0
337.4412, 0.0
337.4337, 0.0
337.4037, 0.0
337.3963, 0.0
337.3888, 0.0
337.2466, 0.0
337.2391, 0.0
337.2316, 0.0
337.1792, 0.0
337.1717, 0.0
337.1643, 0.0
336.9024, 0.0
336.8949, 0.0
336.8874, 0.0
336.8799, 0.0
336.5883, 0.0
336.5807, 0.0
336.5733, 0.0
336.1622, 0.0
336.1547, 0.0
336.1472, 0.0
336.1397, 0.0
336.08, 0.0
336.0725, 0.0
336.065, 0.0
336.0576, 0.0
335.9754, 0.0
335.9679, 0.0
335.9604, 0.0
335.8335, 0.0
335.826, 0.0
335.8185, 0.0
335.4601, 0.0
335.4526, 0.0
335.4452, 0.0
335.3631, 0.0
335.3556, 0.0
335.3481, 0.0
335.2809, 0.0
335.2735, 0.0
335.266, 0.0
335.1989, 0.0
335.1914, 1.0
335.1839, 0.0
335.1765, 0.0
335.169, 1.0
335.1616, 0.0
335.1541, 0.0
335.1467, 0.0
335.1392, 3.0
335.1317, 1.0
335.1243, 0.0
335.1168, 1.0
335.1094, 0.0
334.1997, 0.0
334.1923, 0.0
334.1849, 0.0
334.0209, 0.0
334.0135, 0.0
334.006, 0.0
333.9912, 0.0
333.9837, 0.0
333.9763, 0.0
333.8869, 0.0
333.8795, 0.0
333.872, 0.0
333.5965, 0.0
333.5891, 0.0
333.5816, 0.0
333.3509, 0.0
333.3434, 0.0
333.336, 0.0
333.3286, 0.0
333.3211, 0.0
333.3137, 0.0
333.3062, 0.0
333.2988, 0.0
333.2914, 0.0
333.1946, 0.0
333.1872, 0.0
333.1797, 0.0
333.1723, 0.0
333.1649, 0.0
333.1574, 0.0
333.1351, 0.0
333.1277, 0.0
333.1203, 0.0
333.1128, 0.0
333.1053, 0.0
333.0236, 0.0
333.0161, 0.0
333.0087, 0.0
332.9269, 0.0
332.9194, 0.0
332.912, 0.0
332.8971, 0.0
332.8896, 0.0
332.8823, 0.0
332.6815, 0.0
332.6741, 0.0
332.6666, 0.0
332.2728, 0.0
332.2653, 0.0
332.2579, 0.0
332.1093, 0.0
332.1019, 0.0
332.0945, 0.0
331.9608, 0.0
331.9534, 0.0
331.946, 0.0
331.4486, 0.0
331.4412, 0.0
331.4338, 0.0
331.419, 0.0
331.4115, 0.0
331.4041, 0.0
331.2631, 0.0
331.2557, 0.0
331.2483, 0.0
331.2409, 0.0
331.2335, 0.0
331.2261, 0.0
331.2186, 2.0
331.2112, 0.0
331.2038, 1.0
331.1964, 0.0
331.048, 0.0
331.0406, 0.0
331.0333, 0.0
330.9665, 0.0
330.9591, 0.0
330.9517, 0.0
330.9294, 0.0
330.922, 0.0
330.9146, 0.0
330.9072, 0.0
330.8998, 0.0
330.8924, 0.0
330.885, 0.0
330.6255, 0.0
330.6181, 0.0
330.6107, 0.0
330.381, 0.0
330.3736, 0.0
330.3662, 0.0
330.2403, 0.0
330.2329, 0.0
330.2254, 0.0
330.1366, 0.0
330.1292, 0.0
330.1218, 0.0
329.9071, 0.0
329.8997, 0.0
329.8923, 0.0
329.5444, 0.0
329.537, 0.0
329.5296, 0.0
329.4113, 0.0
329.4039, 0.0
329.3965, 0.0
329.3003, 0.0
329.2929, 0.0
329.2855, 0.0
329.2781, 0.0
329.2708, 0.0
329.2633, 0.0
329.256, 0.0
329.2486, 0.0
329.2411, 0.0
329.2338, 0.0
329.2264, 1.0
329.219, 0.0
329.1894, 0.0
329.182, 0.0
329.1746, 0.0
329.1672, 0.0
329.1598, 0.0
329.0858, 0.0
329.0785, 0.0
329.0711, 0.0
328.9602, 0.0
328.9528, 0.0
328.9454, 0.0
328.5316, 0.0
328.5242, 0.0
328.5168, 0.0
328.3469, 0.0
328.3395, 0.0
328.3321, 0.0
328.1919, 0.0
328.1845, 1.0
328.1771, 0.0
328.1549, 0.0
328.1476, 0.0
328.1402, 0.0
328.1328, 0.0
327.9999, 0.0
327.9926, 0.0
327.9852, 0.0
327.9704, 0.0
327.963, 0.0
327.9556, 0.0
327.5719, 0.0
327.5645, 0.0
327.5572, 0.0
327.3949, 0.0
327.3875, 0.0
327.3801, 0.0
327.3138, 0.0
327.3064, 0.0
327.299, 0.0
327.2917, 0.0
327.2843, 0.0
327.2769, 0.0
327.2548, 0.0
327.2474, 0.0
327.2401, 0.0
327.2327, 0.0
327.2253, 0.0
327.2032, 0.0
327.1958, 0.0
327.1885, 0.0
327.1811, 0.0
327.1737, 0.0
327.1664, 0.0
327.1589, 1.0
327.1516, 0.0
327.0926, 0.0
327.0852, 0.0
327.0779, 0.0
326.6137, 0.0
326.6063, 0.0
326.599, 0.0
326.5548, 0.0
326.5474, 0.0
326.54, 0.0
326.5327, 0.0
326.5253, 0.0
326.1498, 0.0
326.1424, 1.0
326.1351, 0.0
325.3112, 0.0
325.3039, 0.0
325.2965, 0.0
325.2745, 0.0
325.2671, 0.0
325.2598, 0.0
325.2231, 0.0
325.2157, 0.0
325.2083, 0.0
325.0981, 0.0
325.0908, 0.0
325.0834, 0.0
325.0761, 0.0
324.8704, 0.0
324.8629, 0.0
324.8556, 0.0
324.7381, 0.0
324.7307, 0.0
324.7234, 0.0
324.3489, 0.0
324.3416, 0.0
324.3343, 0.0
324.2903, 0.0
324.2829, 0.0
324.2755, 0.0
324.2682, 0.0
324.2609, 0.0
324.0407, 0.0
324.0334, 0.0
324.0261, 0.0
323.9527, 0.0
323.9454, 0.0
323.938, 0.0
323.6814, 0.0
323.674, 0.0
323.6667, 0.0
323.2855, 0.0
323.2782, 0.0
323.2709, 0.0
323.2635, 0.0
323.2562, 0.0
323.2489, 0.0
323.2195, 0.0
323.2123, 0.0
323.2049, 0.0
323.1976, 0.0
323.1903, 0.0
323.117, 0.0
323.1096, 0.0
323.1023, 0.0
323.095, 0.0
323.0877, 0.0
323.0511, 0.0
323.0438, 0.0
323.0364, 0.0
323.0291, 0.0
322.3629, 0.0
322.3555, 0.0
322.3482, 0.0
322.2531, 0.0
322.2458, 0.0
322.2385, 0.0
322.0848, 0.0
322.0775, 0.0
322.0702, 0.0
322.019, 0.0
322.0117, 0.0
322.0044, 0.0
321.9751, 0.0
321.9678, 0.0
321.9605, 0.0
321.6242, 0.0
321.6169, 0.0
321.6096, 0.0
321.3684, 0.0
321.3611, 0.0
321.3538, 0.0
321.142, 0.0
321.1346, 0.0
321.1273, 0.0
320.3172, 0.0
320.3098, 0.0
320.3026, 0.0
320.2369, 0.0
320.2296, 0.0
320.2223, 0.0
320.2151, 0.0
320.2077, 0.0
320.1567, 0.0
320.1494, 0.0
320.1422, 0.0
320.1348, 0.0
320.1275, 0.0
320.1203, 0.0
320.0838, 0.0
320.0765, 0.0
320.0692, 0.0
320.0619, 0.0
320.0546, 0.0
320.0473, 0.0
319.9015, 0.0
319.8942, 0.0
319.8869, 0.0
319.4861, 0.0
319.4788, 0.0
319.4716, 0.0
319.2895, 0.0
319.2822, 0.0
319.2749, 0.0
319.1657, 0.0
319.1584, 0.0
319.1511, 0.0
319.071, 0.0
319.0637, 0.0
319.0565, 0.0
318.9109, 0.0
318.9036, 0.0
318.8963, 0.0
318.7581, 0.0
318.7508, 0.0
318.7435, 0.0
318.198, 0.0
318.1907, 0.0
318.1834, 0.0
318.1616, 0.0
318.1544, 0.0
318.1471, 0.0
318.0235, 0.0
318.0163, 0.0
318.009, 0.0
317.9799, 0.0
317.9727, 0.0
317.9654, 0.0
317.8709, 0.0
317.8636, 0.0
317.8564, 0.0
317.7038, 0.0
317.6965, 0.0
317.6893, 0.0
317.544, 0.0
317.5368, 0.0
317.5295, 0.0
317.4351, 0.0
317.4278, 0.0
317.4205, 0.0
317.2608, 0.0
317.2536, 0.0
317.2463, 0.0
317.2245, 0.0
317.2173, 0.0
317.2101, 0.0
317.1447, 0.0
317.1374, 0.0
317.1302, 0.0
317.1157, 0.0
317.1084, 0.0
317.1011, 0.0
316.6658, 0.0
316.6586, 0.0
316.6513, 0.0
316.2743, 0.0
316.2671, 0.0
316.2598, 0.0
316.2018, 0.0
316.1946, 0.0
316.1873, 0.0
316.1801, 0.0
316.1728, 0.0
316.1656, 0.0
315.3037, 0.0
315.2965, 0.0
315.2893, 0.0
315.282, 0.0
315.2748, 0.0
315.2531, 0.0
315.2459, 0.0
315.2387, 0.0
315.2242, 0.0
315.217, 0.0
315.2097, 0.0
315.2025, 0.0
315.1952, 0.0
315.188, 0.0
315.1808, 1.0
315.1735, 0.0
314.6889, 0.0
314.6817, 0.0
314.6745, 0.0
314.5949, 0.0
314.5877, 0.0
314.5805, 0.0
314.5227, 0.0
314.5154, 0.0
314.5082, 0.0
314.2986, 0.0
314.2914, 0.0
314.2841, 0.0
314.2625, 0.0
314.2553, 0.0
314.248, 0.0
314.2191, 0.0
314.2119, 0.0
314.2047, 0.0
314.0891, 0.0
314.0819, 0.0
314.0747, 0.0
314.0025, 0.0
313.9953, 0.0
313.988, 0.0
313.9808, 0.0
313.9736, 1.0
313.9663, 0.0
313.9374, 0.0
313.9302, 0.0
313.923, 0.0
313.3961, 0.0
313.3889, 0.0
313.3817, 0.0
313.3023, 0.0
313.295, 0.0
313.2878, 0.0
313.2518, 0.0
313.2446, 0.0
313.2374, 0.0
313.2301, 1.0
313.2229, 0.0
313.2085, 0.0
313.2013, 0.0
313.1941, 0.0
313.1869, 0.0
313.1797, 0.0
313.1725, 0.0
313.1653, 0.0
313.158, 0.0
313.122, 0.0
313.1147, 0.0
313.1075, 0.0
313.1003, 0.0
313.0931, 0.0
313.0859, 0.0
313.0571, 0.0
313.0499, 0.0
313.0426, 0.0
312.9345, 0.0
312.9272, 0.0
312.92, 0.0
312.5237, 0.0
312.5164, 0.0
312.5092, 0.0
312.3148, 0.0
312.3076, 0.0
312.3003, 0.0
312.2931, 0.0
312.2859, 0.0
312.0555, 0.0
312.0483, 0.0
312.0411, 0.0
311.9115, 0.0
311.9043, 0.0
311.8972, 0.0
311.71, 0.0
311.7028, 1.0
311.6956, 0.0
311.487, 0.0
311.4798, 0.0
311.4726, 0.0
311.3, 0.0
311.2928, 0.0
311.2856, 0.0
311.2784, 1.0
311.2712, 0.0
311.2641, 0.0
311.2568, 0.0
311.2496, 0.0
311.2425, 0.0
311.2353, 0.0
311.1778, 0.0
311.1706, 0.0
311.1634, 0.0
311.034, 0.0
311.0268, 0.0
311.0196, 0.0
310.5382, 0.0
310.531, 0.0
310.5238, 0.0
310.3012, 0.0
310.294, 0.0
310.2869, 0.0
310.2581, 0.0
310.251, 0.0
310.2438, 0.0
310.2223, 0.0
310.2151, 0.0
310.2079, 0.0
310.1721, 0.0
310.1648, 0.0
310.1577, 0.0
310.0931, 0.0
310.0859, 0.0
310.0787, 0.0
309.8922, 0.0
309.885, 1.0
309.8778, 0.0
309.6841, 0.0
309.6769, 0.0
309.6697, 0.0
309.6626, 0.0
309.6555, 0.0
309.6482, 0.0
309.4044, 0.0
309.3973, 0.0
309.3901, 0.0
309.3829, 0.0
309.3185, 0.0
309.3112, 0.0
309.3041, 0.0
309.2109, 0.0
309.2037, 0.0
309.1966, 0.0
309.0748, 0.0
309.0676, 1.0
309.0604, 0.0
308.9243, 0.0
308.9172, 0.0
308.91, 0.0
308.9028, 0.0
308.8957, 0.0
308.5519, 0.0
308.5447, 0.0
308.5376, 0.0
308.4373, 0.0
308.4302, 0.0
308.4231, 0.0
308.3014, 0.0
308.2942, 0.0
308.2871, 0.0
308.1869, 0.0
308.1797, 0.0
308.1726, 0.0
308.1296, 0.0
308.1225, 0.0
308.1154, 0.0
308.0152, 0.0
308.0081, 0.0
308.0009, 0.0
307.9294, 0.0
307.9222, 0.0
307.9151, 0.0
307.8936, 0.0
307.8865, 0.0
307.8793, 0.0
307.3218, 0.0
307.3146, 0.0
307.3075, 0.0
307.2718, 0.0
307.2646, 0.0
307.2575, 0.0
307.2503, 0.0
307.2432, 0.0
307.236, 0.0
307.2289, 0.0
307.2003, 0.0
307.1932, 0.0
307.186, 0.0
307.1574, 0.0
307.1503, 0.0
307.1432, 0.0
307.0717, 0.0
307.0646, 0.0
307.0575, 0.0
306.9718, 0.0
306.9646, 0.0
306.9575, 0.0
306.9503, 0.0
306.9432, 0.0
306.6648, 0.0
306.6577, 0.0
306.6505, 0.0
306.4364, 0.0
306.4293, 0.0
306.4222, 0.0
306.415, 0.0
306.4079, 0.0
306.3294, 0.0
306.3223, 0.0
306.3152, 0.0
306.201, 0.0
306.1939, 0.0
306.1868, 0.0
306.1797, 0.0
306.1725, 0.0
306.1654, 0.0
306.1582, 0.0
306.144, 0.0
306.1368, 0.0
306.1297, 0.0
306.037, 0.0
306.0299, 0.0
306.0228, 0.0
305.9301, 0.0
305.9229, 0.0
305.9158, 0.0
305.4455, 0.0
305.4384, 0.0
305.4313, 0.0
305.3387, 0.0
305.3316, 0.0
305.3244, 0.0
305.2105, 0.0
305.2034, 0.0
305.1963, 0.0
305.1891, 0.0
305.182, 0.0
305.1749, 0.0
305.118, 0.0
305.1108, 0.0
305.1037, 0.0
305.0894, 0.0
305.0824, 0.0
305.0752, 0.0
305.0468, 0.0
305.0396, 0.0
305.0325, 0.0
304.9329, 0.0
304.9258, 0.0
304.9186, 0.0
304.8475, 0.0
304.8404, 0.0
304.8333, 0.0
304.7052, 0.0
304.6981, 0.0
304.6909, 0.0
304.0865, 0.0
304.0794, 0.0
304.0724, 0.0
303.9302, 0.0
303.9231, 0.0
303.916, 0.0
303.9089, 0.0
303.9018, 0.0
303.8947, 0.0
303.7384, 0.0
303.7313, 0.0
303.7242, 0.0
303.6461, 0.0
303.6389, 0.0
303.6318, 0.0
303.5111, 0.0
303.5041, 1.0
303.4969, 0.0
303.3052, 0.0
303.2982, 0.0
303.2911, 0.0
303.2201, 0.0
303.213, 0.0
303.2059, 0.0
303.1988, 0.0
303.1917, 0.0
303.0143, 0.0
303.0072, 0.0
303.0001, 0.0
302.993, 0.0
302.9859, 0.0
302.9789, 0.0
302.9717, 0.0
302.199, 0.0
302.1919, 0.0
302.1848, 0.0
302.1777, 0.0
302.1069, 0.0
302.0998, 0.0
302.0927, 0.0
302.0714, 0.0
302.0643, 0.0
302.0573, 0.0
301.8023, 0.0
301.7953, 0.0
301.7882, 0.0
301.597, 0.0
301.5899, 0.0
301.5829, 0.0
301.406, 0.0
301.3989, 1.0
301.3918, 0.0
301.2291, 0.0
301.222, 0.0
301.2149, 0.0
301.1725, 0.0
301.1654, 0.0
301.1584, 1.0
301.1512, 0.0
301.1442, 0.0
301.1371, 0.0
301.13, 0.0
301.123, 0.0
301.1159, 0.0
301.1088, 0.0
301.1017, 0.0
301.0947, 0.0
301.0876, 0.0
301.0805, 0.0
301.0735, 0.0
301.0664, 0.0
301.0593, 0.0
300.8543, 0.0
300.8472, 0.0
300.8401, 0.0
300.6069, 0.0
300.5998, 0.0
300.5928, 0.0
300.4797, 0.0
300.4727, 0.0
300.4656, 0.0
300.176, 0.0
300.1689, 0.0
300.1619, 0.0
300.0207, 0.0
300.0136, 0.0
300.0066, 0.0
299.1953, 0.0
299.1883, 0.0
299.1812, 0.0
299.1741, 0.0
299.1671, 0.0
299.16, 0.0
299.1177, 0.0
299.1107, 0.0
299.1036, 0.0
299.0966, 0.0
299.0896, 0.0
299.0825, 0.0
299.0754, 0.0
299.0684, 0.0
299.0613, 0.0
298.9838, 0.0
298.9768, 0.0
298.9697, 0.0
298.9627, 0.0
298.9486, 0.0
298.9416, 0.0
298.9345, 0.0
298.8993, 0.0
298.8922, 0.0
298.8852, 0.0
298.5189, 0.0
298.5119, 0.0
298.5048, 0.0
298.4626, 0.0
298.4555, 0.0
298.4485, 0.0
298.3429, 0.0
298.3358, 0.0
298.3288, 0.0
298.1176, 0.0
298.1106, 0.0
298.1036, 0.0
298.0966, 0.0
298.0894, 0.0
298.0684, 0.0
298.0613, 0.0
298.0543, 0.0
297.7378, 0.0
297.7307, 0.0
297.7237, 0.0
297.6463, 0.0
297.6393, 0.0
297.6323, 0.0
297.2738, 0.0
297.2668, 1.0
297.2597, 2.0
297.2527, 0.0
297.2457, 3.0
297.2386, 0.0
297.2316, 0.0
297.2246, 0.0
297.1895, 0.0
297.1824, 0.0
297.1754, 0.0
297.1262, 0.0
297.1192, 1.0
297.1122, 0.0
297.1051, 0.0
297.0981, 0.0
297.0911, 1.0
297.084, 1.0
297.0771, 0.0
297.07, 0.0
297.063, 0.0
297.056, 0.0
296.9506, 0.0
296.9436, 0.0
296.9366, 0.0
296.8944, 0.0
296.8874, 0.0
296.8804, 0.0
296.768, 0.0
296.761, 0.0
296.754, 0.0
296.3118, 0.0
296.3048, 0.0
296.2978, 0.0
296.0242, 0.0
296.0172, 0.0
296.0103, 0.0
295.5056, 0.0
295.4986, 0.0
295.4915, 0.0
295.2674, 0.0
295.2604, 0.0
295.2534, 0.0
295.2464, 0.0
295.2394, 0.0
295.2324, 0.0
295.2254, 0.0
295.2184, 0.0
295.2114, 0.0
295.1554, 0.0
295.1483, 0.0
295.1414, 0.0
295.0784, 0.0
295.0713, 0.0
295.0644, 0.0
294.9943, 0.0
294.9874, 1.0
294.9803, 0.0
294.9733, 0.0
294.9663, 0.0
294.9593, 0.0
294.9524, 0.0
294.9453, 0.0
294.9384, 0.0
294.6654, 0.0
294.6584, 0.0
294.6514, 0.0
294.2807, 0.0
294.2738, 0.0
294.2668, 0.0
294.2458, 0.0
294.2388, 0.0
294.2318, 0.0
294.1759, 0.0
294.1689, 0.0
294.1619, 0.0
293.9383, 0.0
293.9312, 0.0
293.9243, 0.0
293.3795, 0.0
293.3725, 0.0
293.3655, 0.0
293.3167, 0.0
293.3097, 0.0
293.3027, 0.0
293.2399, 0.0
293.2329, 0.0
293.226, 0.0
293.219, 0.0
293.212, 0.0
293.205, 0.0
293.198, 0.0
293.1911, 0.0
293.1841, 0.0
293.1771, 0.0
293.1282, 0.0
293.1213, 0.0
293.1143, 0.0
293.0864, 0.0
293.0794, 0.0
293.0724, 0.0
293.0376, 0.0
293.0306, 0.0
293.0236, 0.0
292.9259, 0.0
292.9189, 0.0
292.912, 0.0
292.8423, 0.0
292.8353, 0.0
292.8282, 0.0
292.7027, 0.0
292.6958, 0.0
292.6888, 0.0
292.5006, 0.0
292.4936, 0.0
292.4866, 0.0
292.166, 0.0
292.1591, 0.0
292.1521, 0.0
292.1452, 0.0
292.1382, 0.0
292.0964, 0.0
292.0894, 0.0
292.0825, 0.0
291.5185, 0.0
291.5116, 0.0
291.5047, 0.0
291.2889, 0.0
291.282, 0.0
291.2751, 0.0
291.2681, 0.0
291.2611, 0.0
291.2542, 0.0
291.2472, 0.0
291.2403, 0.0
291.1498, 0.0
291.1429, 0.0
291.1359, 0.0
291.122, 0.0
291.1151, 0.0
291.1081, 0.0
291.0177, 0.0
291.0108, 0.0
291.0039, 0.0
290.9552, 0.0
290.9482, 0.0
290.9413, 0.0
290.9343, 0.0
290.9274, 0.0
290.9204, 0.0
290.9065, 0.0
290.8995, 0.0
290.8926, 0.0
290.6841, 0.0
290.6772, 0.0
290.6702, 0.0
290.6632, 0.0
290.6563, 0.0
290.2881, 0.0
290.2813, 0.0
290.2743, 0.0
290.2257, 0.0
290.2187, 0.0
290.2118, 0.0
290.177, 0.0
290.1701, 0.0
290.1632, 0.0
290.0452, 0.0
290.0382, 0.0
290.0313, 0.0
289.7051, 0.0
289.6982, 0.0
289.6913, 0.0
289.6774, 0.0
289.6704, 0.0
289.6635, 0.0
289.6358, 0.0
289.6288, 0.0
289.6219, 0.0
289.4901, 0.0
289.4832, 0.0
289.4762, 0.0
289.4138, 0.0
289.407, 0.0
289.4, 0.0
289.3098, 0.0
289.3029, 0.0
289.296, 0.0
289.2891, 0.0
289.2822, 0.0
289.2752, 0.0
289.2683, 0.0
289.2613, 0.0
289.2544, 0.0
289.2405, 0.0
289.2336, 0.0
289.2267, 0.0
289.2198, 0.0
289.2128, 0.0
289.2059, 0.0
289.199, 0.0
289.192, 0.0
289.1712, 0.0
289.1643, 0.0
289.1574, 0.0
289.1227, 0.0
289.1158, 0.0
289.1089, 0.0
288.9702, 0.0
288.9633, 0.0
288.9565, 0.0
288.9495, 0.0
288.9079, 0.0
288.901, 0.0
288.894, 0.0
288.6932, 0.0
288.6863, 0.0
288.6794, 0.0
288.5409, 0.0
288.5339, 0.0
288.527, 0.0
288.1187, 0.0
288.1118, 0.0
288.1049, 0.0
287.8213, 0.0
287.8144, 0.0
287.8075, 0.0
287.2753, 0.0
287.2684, 0.0
287.2615, 0.0
287.2201, 0.0
287.2132, 0.0
287.2063, 0.0
287.1994, 0.0
287.1717, 0.0
287.1648, 0.0
287.1579, 0.0
287.0543, 0.0
287.0474, 0.0
287.0405, 0.0
287.0336, 0.0
286.9991, 0.0
286.9922, 0.0
286.9853, 0.0
286.9784, 0.0
286.9715, 1.0
286.9646, 0.0
286.9577, 0.0
286.9508, 0.0
286.9438, 1.0
286.937, 0.0
286.9301, 0.0
286.9232, 0.0
286.9162, 0.0
286.7644, 0.0
286.7575, 0.0
286.7506, 0.0
286.4401, 0.0
286.4332, 0.0
286.4263, 0.0
286.4194, 0.0
286.4124, 0.0
286.4055, 0.0
286.3987, 0.0
286.3918, 0.0
286.1918, 0.0
286.1849, 0.0
286.178, 0.0
286.1573, 0.0
286.1504, 0.0
286.1435, 0.0
286.1366, 0.0
286.1298, 0.0
286.1229, 0.0
286.109, 0.0
286.1021, 0.0
286.0953, 0.0
286.0815, 0.0
286.0746, 0.0
286.0677, 0.0
285.8816, 0.0
285.8747, 0.0
285.8679, 0.0
285.7989, 0.0
285.792, 0.0
285.7851, 0.0
285.5992, 0.0
285.5923, 0.0
285.5854, 0.0
##END= 

##END= 
