##TITLE= C210H325N58O73P(+3) - resolution: 0.0010
##JCAMP-DX= 5.00
##DATA TYPE= MASS SPECTRUM
##DATA CLASS= PEAK TABLE
##ORIGIN= Generated spectrum based on ChemCalc www.chemcalc.org
##SPECTROMETER/DATA SYSTEM= Based on ChemCalc isotopic distribution calculator
##XUNITS= M/Z
##YUNITS= RELATIVE ABUNDANCE
##NPOINTS= 113
##MAXY= 100
##MINY= 0
##PEAK TABLE= (XY..XY)
1617.46, 0
1619.46, 35.93117916
1619.793, 7.73946708
1619.795, 84.9759045
1619.796, 1.75190777
1620.125, 0.81866213
1620.127, 18.30344524
1620.128, 5.63476726
1620.129, 100
1620.13, 4.15698405
1620.131, 0.04231573
1620.457, 0.05668354
1620.459, 1.91090845
1620.46, 0.06274043
1620.461, 22.04226333
1620.462, 1.51099921
1620.463, 86.59441445
1620.464, 8.9559204
1620.465, 0.24007057
1620.466, 0.00122162
1620.79, 0.00193643
1620.792, 0.13356742
1620.793, 0.12176824
1620.794, 2.27690024
1620.795, 2.76816603
1620.796, 17.25606914
1620.797, 15.67724835
1620.798, 46.16359361
1620.799, 3.8125878
1620.8, 0.11686431
1620.801, 0.00096967
1621.124, 0.00529683
1621.125, 0.00687081
1621.126, 0.15587966
1621.127, 0.28424962
1621.128, 1.78411902
1621.129, 3.25043186
1621.13, 10.00768831
1621.131, 12.57662805
1621.132, 22.37395035
1621.133, 2.31852884
1621.134, 0.0948524
1621.135, 0.00171898
1621.458, 0.00658035
1621.46, 0.13310466
1621.461, 0.01877686
1621.462, 1.28614786
1621.463, 0.3647493
1621.464, 6.55303038
1621.465, 2.12440803
1621.466, 13.76366124
1621.467, 2.60766074
1621.468, 0.17321371
1621.469, 0.00407092
1621.793, 0.00435664
1621.794, 0.02059729
1621.795, 0.08778145
1621.796, 0.26251407
1621.797, 0.71614293
1621.798, 1.48995526
1621.799, 2.69538074
1621.8, 3.39095469
1621.801, 3.01432098
1621.802, 0.40781908
1621.803, 0.02440961
1622.127, 0.00191601
1622.128, 0.01428256
1622.129, 0.03192096
1622.13, 0.16124435
1622.131, 0.21121204
1622.132, 0.79333058
1622.133, 0.75924247
1622.134, 1.60225781
1622.135, 1.09100991
1622.136, 0.1635986
1622.137, 0.01006097
1622.462, 0.00123988
1622.463, 0.01770026
1622.464, 0.0183074
1622.465, 0.12698188
1622.466, 0.12392405
1622.467, 0.42681201
1622.468, 0.31155503
1622.469, 0.56406118
1622.47, 0.13410645
1622.471, 0.011314
1622.797, 0.00358725
1622.798, 0.01173754
1622.799, 0.02426576
1622.8, 0.0654991
1622.801, 0.09302599
1622.802, 0.14672318
1622.803, 0.13710432
1622.804, 0.06512935
1622.805, 0.00906028
1623.131, 0.0010841
1623.132, 0.00094145
1623.133, 0.0100894
1623.134, 0.00875596
1623.135, 0.03497998
1623.136, 0.02508202
1623.137, 0.05032048
1623.138, 0.02197046
1623.139, 0.00226727
1623.467, 0.00106574
1623.468, 0.00258177
1623.469, 0.00392926
1623.47, 0.00893381
1623.471, 0.00817146
1623.472, 0.00704117
1623.473, 0.00101842
1623.805, 0.00101068
1625.805, 0
##END=

